File: lasermedia/data/002-ems.txt
# Optical emission spectrum of Ce:GdLiF4 (Ce:GdLiF4)
# assuming unity concentration per meter.  This data was part of the NASA
# Laser Spectra Database found on the web until December of 2005 which
# was created by Pat Cross working at NASA Langley Research Center, Internal
# Operations Group, Aerospace Electronics Systems Division, Remote Sensing.
#
# The spectra was collected by GA on 15 August 1994 and was
# annotated on  6 April 1995.  The sample name was "" was a 9.990
# long piece of :.
# The incident light was unpolarized.
#
# Spectra were recorded from 260nm to 499.2nm
# every 0.1nm at room temperature.  The
# excitation wavelength was unknown.
#
# SLIT WIDTH IS 1500 MICRONS, SAMPLE SHAPE IS CYLINDRICAL, C-AXIS PERP. TO LONG CYLINDER AXIS, PUMP IS ALONG A(=B AXIS & LONG AXIS) OF CRYSTAL. POLARIZER IS PLACED AFTER SAMPLE PARALLEL TO THE C-AX (Pi-POL). INTENSITY MISSING FOR 9 DATA POINTS. INSERTED 0.0 FOR ALL POINTS. FORMAT(1X,G15.8).
#
##Wavelength (nm)	Absorbance (/meter)
260	0.0012846
260.8	0.00074826
261.6	0.00084989
262.4	0.00055237
263.2	0.00182
264	0.00086997
264.8	0.00077097
265.6	0.00086673
266.4	0.0010561
267.2	0.0013805
268	0.0011938
268.8	0.0011816
269.6	0.0015767
270.4	0.00061326
271.2	0.00014342
272	0
272.8	0
273.6	2.2228e-05
274.4	0
275.2	0
276	0
276.8	0
277.6	0
278.4	0
279.2	0
280	0
280.8	9.8743e-06
281.6	0.00039674
282.4	0
283.2	0
284	0
284.8	0
285.6	0
286.4	0
287.2	0
288	0
288.8	0
289.6	0
290.4	0
291.2	0
292	0
292.8	0.00069093
293.6	0
294.4	0
295.2	2.6652e-05
296	0.00039471
296.8	0.00059538
297.6	0
298.4	0.00077995
299.2	0.0014392
300	0.002293
300.8	0.0043127
301.6	0.010286
302.4	0.022058
303.2	0.043439
304	0.070729
304.8	0.1081
305.6	0.14941
306.4	0.18139
307.2	0.21588
308	0.24134
308.8	0.2489
309.6	0.30024
310.4	0.62858
311.2	0.9882
312	0.52031
312.8	0.29854
313.6	0.36162
314.4	0.39938
315.2	0.25629
316	0.17742
316.8	0.14693
317.6	0.13899
318.4	0.1407
319.2	0.14505
320	0.14648
320.8	0.14806
321.6	0.15253
322.4	0.15322
323.2	0.15347
324	0.15234
324.8	0.15304
325.6	0.14552
326.4	0.1426
327.2	0.13684
328	0.13441
328.8	0.12554
329.6	0.11824
330.4	0.11126
331.2	0.10493
332	0.098942
332.8	0.090815
333.6	0.084377
334.4	0.078237
335.2	0.071485
336	0.064956
336.8	0.060683
337.6	0.055565
338.4	0.051208
339.2	0.046844
340	0
340.8	0.041142
341.6	0.03881
342.4	0.037407
343.2	0.035459
344	0.034026
344.8	0.032696
345.6	0.0314
346.4	0.03041
347.2	0.030117
348	0.028881
348.8	0.027749
349.6	0.027085
350.4	0.026364
351.2	0.026145
352	0.024931
352.8	0.023991
353.6	0.023629
354.4	0.022008
355.2	0.021205
356	0.020296
356.8	0.019319
357.6	0.018342
358.4	0.017604
359.2	0.016248
360	0.015446
360.8	0.014324
361.6	0.013851
362.4	0.013265
363.2	0.011969
364	0.01186
364.8	0.011252
365.6	0.010648
366.4	0.010203
367.2	0.0091114
368	0.0093021
368.8	0.010026
369.6	0.011245
370.4	0.010266
371.2	0.009848
372	0.0088187
372.8	0.009097
373.6	0.0085253
374.4	0.0092596
375.2	0.017138
376	0.03578
376.8	0.039448
377.6	0.096535
378.4	0.027238
379.2	0.033038
380	0.050539
380.8	0.080188
381.6	0.063227
382.4	0.037802
383.2	0.029197
384	0.030479
384.8	0.02302
385.6	0.013151
386.4	0.0087666
387.2	0.0067047
388	0.0058435
388.8	0.0050234
389.6	0.0039757
390.4	0.0030988
391.2	0.0028168
392	0.0025808
392.8	0.0027469
393.6	0.0027325
394.4	0.0023589
395.2	0.0022627
396	0.0021751
396.8	0.001865
397.6	0.0025751
398.4	0.0041991
399.2	0.0045054
400	0.0029554
400.8	0.007338
401.6	0.010191
402.4	0.0058573
403.2	0.0027675
404	0.0029372
404.8	0.0037695
405.6	0.002838
406.4	0.0031636
407.2	0.0042964
408	0.0075656
408.8	0.011961
409.6	0.018695
410.4	0.019852
411.2	0.032105
412	0.047908
412.8	0.035184
413.6	0.03811
414.4	0.023365
415.2	0.024482
416	0.040411
416.8	0.042261
417.6	0.049247
418.4	0.02436
419.2	0.012987
420	0.0074687
420.8	0.0049558
421.6	0.0043489
422.4	0.0045221
423.2	0.0083533
424	0.00641
424.8	0.0068216
425.6	0.0043265
426.4	0.0034102
427.2	0.0044289
428	0.0061909
428.8	0.0053372
429.6	0.0094888
430.4	0.016517
431.2	0.011468
432	0.011284
432.8	0.0094508
433.6	0.011498
434.4	0.020263
435.2	0.018496
436	0.01465
436.8	0.0099398
437.6	0.018419
438.4	0.028086
439.2	0.017991
440	0.012729
440.8	0.0065597
441.6	0.0058954
442.4	0.0087551
443.2	0.01051
444	0.007692
444.8	0.0065511
445.6	0.0044159
446.4	0.0037543
447.2	0.0038834
448	0.0035394
448.8	0.003888
449.6	0.0050981
450.4	0.0048697
451.2	0.0045674
452	0.0045249
452.8	0.0044895
453.6	0.0047848
454.4	0.0060041
455.2	0.0074012
456	0.0067705
456.8	0.0049273
457.6	0.0060754
458.4	0.0062231
459.2	0.0051093
460	0.0042248
460.8	0.004002
461.6	0.0040543
462.4	0.0042813
463.2	0.0062158
464	0.0094072
464.8	0.0079897
465.6	0.0068765
466.4	0.0070134
467.2	0.0099124
468	0.016145
468.8	0.02372
469.6	0.030214
470.4	0.014575
471.2	0.012797
472	0.016983
472.8	0.016737
473.6	0.025344
474.4	0.04059
475.2	0.04465
476	0.031542
476.8	0.043352
477.6	0.057501
478.4	0.064489
479.2	0.039687
480	0.025834
480.8	0.026245
481.6	0.026314
482.4	0.029405
483.2	0.039843
484	0.054062
484.8	0.065617
485.6	0.079678
486.4	0.087287
487.2	0.10363
488	0.10119
488.8	0.064614
489.6	0.037132
490.4	0.024527
491.2	0.017494
492	0.013212
492.8	0.010604
493.6	0.0094738
494.4	0.0085055
495.2	0.0080288
496	0.0071598
496.8	0.0064922
497.6	0.0064504
498.4	0.0060035
499.2	0.0058165