File: lasermedia/data/003-ems.txt
# Optical emission spectrum of Ce:GdLiF4 (Ce:GdLiF4)
# assuming unity concentration per meter.  This data was part of the NASA
# Laser Spectra Database found on the web until December of 2005 which
# was created by Pat Cross working at NASA Langley Research Center, Internal
# Operations Group, Aerospace Electronics Systems Division, Remote Sensing.
#
# The spectra was collected by GA on 15 August 1994 and was
# annotated on  4 April 1995.  The sample name was "" was a 9.990
# long piece of :.
# The incident light was unpolarized.
#
# Spectra were recorded from 260nm to 499.2nm
# every 0.1nm at room temperature.  The
# excitation wavelength was unknown.
#
# SLIT WIDTH IS 1500 MICRONS, SAMPLE SHAPE IS CYLINDRICAL, C-AXIS PERP. TO LONG CYLINDER AXIS, PUMP IS ALONG A(=B AXIS & LONG AXIS) OF CRYSTAL. SAMPLE IS PLACED SUCH THAT C-AXIS IS IN THE SAME DIRECTION AS EMISSION (S-POL) DATA MISSING FROM 12 POINTS ON INPUT DATA FILE. SET MISSING DATA POINTS TO ZERO. FORMAT(1X,G15.8).
#
##Wavelength (nm)	Absorbance (/meter)
260	0.0049954
260.8	0.0053264
261.6	0.0049725
262.4	0.0053341
263.2	0.0053625
264	0.0057745
264.8	0.0052319
265.6	0.0049611
266.4	0.0055902
267.2	0.0057661
268	0.0060678
268.8	0.0049568
269.6	0.0049831
270.4	0.0031809
271.2	0.0021911
272	0.00056689
272.8	0.00061532
273.6	0.00036092
274.4	0.00063514
275.2	0.00040496
276	0.00058741
276.8	0.00065609
277.6	0.00095299
278.4	0.0002476
279.2	0.00087036
280	9.3146e-05
280.8	0.00060761
281.6	0
282.4	0
283.2	0.00043245
284	0.00074256
284.8	0.0003937
285.6	0.00056812
286.4	0.00037729
287.2	0.00085776
288	0.00053277
288.8	0.00021071
289.6	0
290.4	0.00089575
291.2	0
292	0.00086697
292.8	0.00088168
293.6	0.0010335
294.4	0.00044003
295.2	0.00048541
296	0.00050772
296.8	0.0012025
297.6	0.0014442
298.4	0.0020004
299.2	0.0026754
300	0.0043962
300.8	0.0077369
301.6	0.01441
302.4	0.028973
303.2	0.053155
304	0.087993
304.8	0.11864
305.6	0.14789
306.4	0.17419
307.2	0.19684
308	0.22863
308.8	0.2228
309.6	0.25932
310.4	0.56652
311.2	0.99417
312	0.52605
312.8	0.2786
313.6	0.3296
314.4	0.39055
315.2	0.26179
316	0.17496
316.8	0.15052
317.6	0.15332
318.4	0.16319
319.2	0.17164
320	0.17796
320.8	0.18207
321.6	0.18575
322.4	0.18375
323.2	0.18156
324	0.17685
324.8	0.16878
325.6	0.16107
326.4	0.1523
327.2	0.1417
328	0.13115
328.8	0.11983
329.6	0.11165
330.4	0.10069
331.2	0.091578
332	0.083688
332.8	0.076247
333.6	0.069031
334.4	0.062421
335.2	0.056762
336	0.051857
336.8	0.047678
337.6	0.043992
338.4	0.041495
339.2	0.039334
340	0.037877
340.8	0.036741
341.6	0.0357
342.4	0.03498
343.2	0.034612
344	0.034033
344.8	0.034142
345.6	0.033858
346.4	0.033653
347.2	0.033047
348	0.032225
348.8	0.031288
349.6	0.030452
350.4	0.029304
351.2	0.028477
352	0.027648
352.8	0.02613
353.6	0.0246
354.4	0.023545
355.2	0.022532
356	0.021041
356.8	0.019869
357.6	0.018325
358.4	0.017564
359.2	0.016383
360	0.015471
360.8	0.014359
361.6	0.013388
362.4	0.012381
363.2	0.011387
364	0.010592
364.8	0.0099333
365.6	0.0092196
366.4	0.0085742
367.2	0.0079414
368	0.0077781
368.8	0.0076975
369.6	0.0072895
370.4	0.0067043
371.2	0.0069394
372	0.0064729
372.8	0.006371
373.6	0.0060819
374.4	0.0060479
375.2	0.0077643
376	0.013392
376.8	0.019834
377.6	0.023086
378.4	0.022334
379.2	0.021834
380	0.028281
380.8	0.037894
381.6	0.027688
382.4	0.0183
383.2	0.015581
384	0.016895
384.8	0.012846
385.6	0.0079487
386.4	0.0057154
387.2	0.0042214
388	0.0035622
388.8	0.0031486
389.6	0.002714
390.4	0.0022648
391.2	0.0020229
392	0.0019165
392.8	0.0021227
393.6	0.0012649
394.4	0.0018454
395.2	0.0017857
396	0.0017836
396.8	0.0017093
397.6	0.0019033
398.4	0.0027951
399.2	0.0028027
400	0.0029589
400.8	0.0031907
401.6	0.0045126
402.4	0.0041648
403.2	0.0019587
404	0.0021969
404.8	0.0025291
405.6	0.0019939
406.4	0.0022257
407.2	0.0032243
408	0.0045833
408.8	0.0064212
409.6	0.0090363
410.4	0.010145
411.2	0.012781
412	0.019205
412.8	0.023264
413.6	0.020137
414.4	0.010155
415.2	0.0090914
416	0.015593
416.8	0.015172
417.6	0.012451
418.4	0.0075039
419.2	0.0046735
420	0.0032697
420.8	0.0027183
421.6	0.0027085
422.4	0.002613
423.2	0.0029406
424	0.0031684
424.8	0.0037153
425.6	0.0028142
426.4	0.0023402
427.2	0.0038931
428	0.004149
428.8	0.0035969
429.6	0.0043737
430.4	0.00667
431.2	0.0057282
432	0.0046312
432.8	0.0049191
433.6	0.0082318
434.4	0.01942
435.2	0.020646
436	0.011477
436.8	0.0079113
437.6	0.011919
438.4	0.010907
439.2	0.010854
440	0.0079331
440.8	0.0046618
441.6	0.00406
442.4	0.0064272
443.2	0.0064128
444	0.0044686
444.8	0.0041435
445.6	0.0034077
446.4	0.003016
447.2	0.0028806
448	0.0029386
448.8	0.0029354
449.6	0.0026775
450.4	0.0028997
451.2	0.0028794
452	0.0028735
452.8	0.0031053
453.6	0.0036435
454.4	0.0043752
455.2	0.0043127
456	0.0037963
456.8	0.0032738
457.6	0.0049697
458.4	0.0053298
459.2	0.0050318
460	0.0038184
460.8	0.0033218
461.6	0.0028698
462.4	0.003138
463.2	0.0046987
464	0.0064355
464.8	0.0054501
465.6	0.0046097
466.4	0.0046776
467.2	0.0061184
468	0
468.8	0.010711
469.6	0.010603
470.4	0.0072148
471.2	0.0064447
472	0.0080795
472.8	0.012454
473.6	0.022491
474.4	0.022527
475.2	0.019878
476	0.018822
476.8	0.020421
477.6	0.027091
478.4	0.045342
479.2	0.02798
480	0.016148
480.8	0.013403
481.6	0.01347
482.4	0.014428
483.2	0.0167
484	0.020261
484.8	0.0244
485.6	0.029264
486.4	0.031487
487.2	0.032452
488	0.028019
488.8	0.017384
489.6	0.011641
490.4	0.0088543
491.2	0.0072878
492	0.0063991
492.8	0.0056612
493.6	0.0050825
494.4	0.0048864
495.2	0.0045796
496	0.0043773
496.8	0.0041706
497.6	0.0039604
498.4	0.0039673
499.2	0.0040245