File: lasermedia/data/005-ems.txt
# Optical emission spectrum of Ce:KYF4 (Ce:KYF4)
# assuming unity concentration per meter.  This data was part of the NASA
# Laser Spectra Database found on the web until December of 2005 which
# was created by Pat Cross working at NASA Langley Research Center, Internal
# Operations Group, Aerospace Electronics Systems Division, Remote Sensing.
#
# The spectra was collected by GA on 15 August 1994 and was
# annotated on  6 April 1995.  The sample name was "" was a 9.990
# long piece of :.
# The incident light was unpolarized.
#
# Spectra were recorded from 279.8nm to 449.4nm
# every 0.1nm at room temperature.  The
# excitation wavelength was unknown.
#
# SLIT WIDTH IS 1500 MICRONS, SAMPLE IS RECTANGULAR. C-AXIS IS CUT PERP. TO LONG AXIS OF CRYSTAL. PUMP LIGHT IS ALONG A(=B & LONG AXIS ) OF CRYSTAL. SAMPLE IS PLACED WITH C-AXIS IN THE SAME DIRECTION AS EMISSION OBSERVED. (SIGMA POL.) MANY RECORDS MISSING FROM END OF FILE. FILE TRUNCATED AT MISSING DATA POINTS. CONCENTRATION IS ATOMIC PERCENT. FORMAT(1X,G15.8).
#
##Wavelength (nm)	Absorbance (/meter)
279.8	0.00155387
280.4	0.00272437
281	0.00188632
281.6	0.00276294
282.2	0.00258408
282.8	0.00369924
283.4	0.00266639
284	0.00198894
284.6	0.00223146
285.2	0.00322605
285.8	0.00491978
286.4	0.00369236
287	0.00212031
287.6	0.00548977
288.2	0.00515073
288.8	0.00479915
289.4	0.00609169
290	0.00710513
290.6	0.0061794
291.2	0.00774488
291.8	0.00994005
292.4	0.0104926
293	0.0128347
293.6	0.015047
294.2	0.0192566
294.8	0.0255215
295.4	0.0356902
296	0.047225
296.6	0.0675184
297.2	0.0939046
297.8	0.127376
298.4	0.172272
299	0.225205
299.6	0.282068
300.2	0.346928
300.8	0.416407
301.4	0.488539
302	0.558632
302.6	0.635825
303.2	0.704444
303.8	0.772228
304.4	0.834165
305	0.882195
305.6	0.921161
306.2	0.951576
306.8	0.969167
307.4	0.980837
308	0.990443
308.6	0.997371
309.2	1
309.8	0.996536
310.4	0.988404
311	0.97639
311.6	0.96472
312.2	0.959733
312.8	0.950077
313.4	0.936491
314	0.923077
314.6	0.90922
315.2	0.891359
315.8	0.87485
316.4	0.864433
317	0.846989
317.6	0.828342
318.2	0.811021
318.8	0.79429
319.4	0.777682
320	0.763089
320.6	0.747537
321.2	0.735155
321.8	0.71948
322.4	0.706484
323	0.692136
323.6	0.677665
324.2	0.668354
324.8	0.654006
325.4	0.64155
326	0.630027
326.6	0.617006
327.2	0.604648
327.8	0.594133
328.4	0.581161
329	0.569319
329.6	0.557207
330.2	0.545586
330.8	0.534997
331.4	0.523229
332	0.512002
332.6	0.500258
333.2	0.488834
333.8	0.477975
334.4	0.466354
335	0.45493
335.6	0.444906
336.2	0.434145
336.8	0.42449
337.4	0.412844
338	0.403017
338.6	0.392625
339.2	0.381422
339.8	0.372282
340.4	0.361497
341	0.352824
341.6	0.341695
342.2	0.330541
342.8	0.321524
343.4	0.311869
344	0.303123
344.6	0.294229
345.2	0.291944
345.8	0.275876
346.4	0.267302
347	0.260276
347.6	0.251996
348.2	0.243712
348.8	0.23612
349.4	0.227352
350	0.218107
350.6	0.212505
351.2	0.206601
351.8	0.199975
352.4	0.193504
353	0.18835
353.6	0.182409
354.2	0.176208
354.8	0.169506
355.4	0.164742
356	0.159313
356.6	0.153593
357.2	0.147871
357.8	0.143336
358.4	0.140031
359	0.135189
359.6	0.132383
360.2	0.128922
360.8	0.125487
361.4	0.121028
362	0.11678
362.6	0.112898
363.2	0.10826
363.8	0.104872
364.4	0.100872
365	0.0970469
365.6	0.0932511
366.2	0.0900474
366.8	0.0869862
367.4	0.0836449
368	0.079859
368.6	0.0771417
369.2	0.0738742
369.8	0.0708351
370.4	0.0678574
371	0.0652507
371.6	0.0628922
372.2	0.0605312
372.8	0.0584158
373.4	0.0560376
374	0.0539493
374.6	0.0525833
375.2	0.0501879
375.8	0.0485836
376.4	0.0467189
377	0.0451171
377.6	0.043245
378.2	0.0420976
378.8	0.0404491
379.4	0.0392232
380	0.0370759
380.6	0.0358819
381.2	0.0347517
381.8	0.033796
382.4	0.0327077
383	0.0312852
383.6	0.0303344
384.2	0.0294769
384.8	0.0285999
385.4	0.0275901
386	0.0270299
386.6	0.0262413
387.2	0.0252365
387.8	0.024696
388.4	0.0240361
389	0.023203
389.6	0.0218682
390.2	0.0213142
390.8	0.0208196
391.4	0.019941
392	0.0197587
392.6	0.0196516
393.2	0.0190183
393.8	0.0187544
394.4	0.0176559
395	0.0171282
395.6	0.0171329
396.2	0.0168393
396.8	0.0165396
397.4	0.0158504
398	0.0161013
398.6	0.015721
399.2	0.01525
399.8	0.0145486
400.4	0.013573
401	0.0136784
401.6	0.0132931
402.2	0.0127322
402.8	0.0130922
403.4	0.0126111
404	0.0125814
404.6	0.012703
405.2	0.0127099
405.8	0.0120642
406.4	0.0112365
407	0.0101339
407.6	0.0108655
408.2	0.0106909
408.8	0.0104847
409.4	0.010114
410	0.0101081
410.6	0.00953664
411.2	0.00969953
411.8	0.00981009
412.4	0.00952829
413	0.0100226
413.6	0.0098747
414.2	0.00889296
414.8	0.00861558
415.4	0.00898754
416	0.00839496
416.6	0.0082387
417.2	0.00791367
417.8	0.00818392
418.4	0.00799179
419	0.00725401
419.6	0.00716385
420.2	0.00762106
420.8	0.0075417
421.4	0.00828686
422	0.00815026
422.6	0.00782694
423.2	0.00788689
423.8	0.00757585
424.4	0.00639068
425	0.00646119
425.6	0.00572538
426.2	0.00573692
426.8	0.0060966
427.4	0.00642926
428	0.00601258
428.6	0.00505982
429.2	0.00562907
429.8	0.00580228
430.4	0.00631919
431	0.00553817
431.6	0.00492077
432.2	0.00416529
432.8	0.00458615
433.4	0.00500405
434	0.00616834
434.6	0.00490873
435.2	0.00549566
435.8	0.00861607
436.4	0.00653121
437	0.0044466
437.6	0.00441343
438.2	0.00414441
438.8	0.00414736
439.4	0.00345183
440	0.0039287
440.6	0.00423433
441.2	0.00485419
441.8	0.00784635
442.4	0.00454291
443	0.00383878
443.6	0.0040255
444.2	0.00420485
444.8	0.00429845
445.4	0.0042503
446	0.00411026
446.6	0.00369776
447.2	0.00373683
447.8	0.00278947
448.4	0.00320296
449	0.00360784
449.4	0.00357664