File: lasermedia/data/006-ems.txt
# Optical emission spectrum of Ce:KYF4 (Ce:KYF4)
# assuming unity concentration per meter.  This data was part of the NASA
# Laser Spectra Database found on the web until December of 2005 which
# was created by Pat Cross working at NASA Langley Research Center, Internal
# Operations Group, Aerospace Electronics Systems Division, Remote Sensing.
#
# The spectra was collected by GA on 15 August 1994 and was
# annotated on  6 April 1995.  The sample name was "" was a 9.990
# long piece of :.
# The incident light was unpolarized.
#
# Spectra were recorded from 279.8nm to 449.4nm
# every 0.1nm at room temperature.  The
# excitation wavelength was unknown.
#
# SLIT WIDTH IS 1500 MICRONS, SAMPLE IS RECTANGULAR. C-AXIS IS CUT PERP. TO LONG AXIS OF CRYSTAL. PUMP LIGHT IS ALONG A(=B & LONG AXIS ) OF CRYSTAL. POLARIZER AFTER SAMPLE IS PLACED PARALLEL TO THE C-AXIS (P-POL). 11 RECORDS MISSING FROM MIDDLE OF FILE. INTENSITY SET TO ZERO. CONCENTRATION IS ATOMIC PERCENT. FORMAT(1X,G15.8).
#
##Wavelength (nm)	Absorbance (/meter)
279.8	0.000891352
280.4	0.00110195
281	0.00291415
281.6	0.00268914
282.2	0.00148544
282.8	0.00267143
283.4	0.00279405
284	0.00173897
284.6	0.00350851
285.2	0.00292184
285.8	0.00286571
286.4	0.00254966
287	0.00325727
287.6	0.00347777
288.2	0.00326178
288.8	0.00484673
289.4	0.00487196
290	0.00398777
290.6	0.00455323
291.2	0.00540651
291.8	0.00570336
292.4	0.00544226
293	0.00461353
293.6	0.00661143
294.2	0.0521424
294.8	0.00848705
295.4	0.0100783
296	0.0129307
296.6	0.0193174
297.2	0.0292084
297.8	0.0422381
298.4	0.063956
299	0.0985617
299.6	0.136106
300.2	0.187361
300.8	0.251558
301.4	0.325159
302	0.401634
302.6	0.485425
303.2	0.569083
303.8	0.654194
304.4	0.735997
305	0.800929
305.6	0.873812
306.2	0.924043
306.8	0.945242
307.4	0.964218
308	0.974208
308.6	0.987789
309.2	0.994888
309.8	0.993402
310.4	0.996926
311	0.989509
311.6	0.979203
312.2	0.973272
312.8	0.954312
313.4	0.956768
314	0.942168
314.6	0.927351
315.2	0.916192
315.8	0.903212
316.4	0.891068
317	0.869185
317.6	0.853465
318.2	0.838832
318.8	0.823263
319.4	0.807477
320	0.790472
320.6	0.78115
321.2	0.775989
321.8	0.76037
322.4	0.749094
323	0.735813
323.6	0.726559
324.2	0.716586
324.8	0.705244
325.4	0.695204
326	0.687704
326.6	0.675826
327.2	0.665152
327.8	0.657351
328.4	0.64534
329	0.638174
329.6	0.626664
330.2	0.620901
330.8	0.607621
331.4	0.601022
332	0.593756
332.6	0.583917
333.2	0.574077
333.8	0.563036
334.4	0.553597
335	0.543808
335.6	0.533184
336.2	0.523128
336.8	0.513172
337.4	0.500493
338	0.489301
338.6	0.483304
339.2	0.471777
339.8	0.462773
340.4	0.451798
341	0.442711
341.6	0.43197
342.2	0.422916
342.8	0.409736
343.4	0.40125
344	0.388721
344.6	0.379717
345.2	0.36946
345.8	0.357984
346.4	0.348045
347	0.337554
347.6	0.329452
348.2	0.318761
348.8	0.30934
349.4	0.30077
350	0.292702
350.6	0.284617
351.2	0.278386
351.8	0.269916
352.4	0.262466
353	0.258657
353.6	0.249019
354.2	0.240833
354.8	0.232347
355.4	0.225431
356	0.217012
356.6	0.211817
357.2	0.204283
357.8	0.197083
358.4	0.191003
359	0.185039
359.6	0.180479
360.2	0.176319
360.8	0.168919
361.4	0.166248
362	0.160217
362.6	0.157082
363.2	0.153106
363.8	0.148051
364.4	0.144251
365	0.138458
365.6	0.134444
366.2	0.130802
366.8	0.126522
367.4	0.120767
368	0.118076
368.6	0.113441
369.2	0.108935
369.8	0.105011
370.4	0.10221
371	0.0986753
371.6	0.0945392
372.2	0.0907773
372.8	0.0881012
373.4	0.0850459
374	0.0816999
374.6	0.079398
375.2	0.0772063
375.8	0.0746638
376.4	0.0716369
377	0
377.6	0
378.2	0.0644655
378.8	0.0622204
379.4	0.0610628
380	0.058831
380.6	0.0564723
381.2	0.0544744
381.8	0.0522192
382.4	0.0512637
383	0.049645
383.6	0.0480815
384.2	0.0467267
384.8	0.0451113
385.4	0.0439721
386	0.0426323
386.6	0.0403855
387.2	0.0399997
387.8	0.0392346
388.4	0.0375958
389	0.0372467
389.6	0.0357784
390.2	0.0348796
390.8	0.0332008
391.4	0.0330722
392	0.0318978
392.6	0.0316105
393.2	0.0304729
393.8	0.0305965
394.4	0.0295842
395	0.029033
395.6	0.0284633
396.2	0.0278235
396.8	0.0271303
397.4	0.0272957
398	0.0264738
398.6	0.0259359
399.2	0.0250388
399.8	0.0241217
400.4	0.0246229
401	0.024212
401.6	0.0229992
402.2	0.0223043
402.8	0.0217864
403.4	0.0224362
404	0.0218332
404.6	0.0224696
405.2	0.0224011
405.8	0.0206889
406.4	0.0204333
407	0.0196649
407.6	0.0200207
408.2	0.019583
408.8	0.0193174
409.4	0.019436
410	0.0191287
410.6	0.0186342
411.2	0.0185457
411.8	0.0177121
412.4	0.0186209
413	0.0187278
413.6	0.0175451
414.2	0.0175618
414.8	0.0170138
415.4	0.0170523
416	0.0167482
416.6	0.0168184
417.2	0.0159451
417.8	0.0435962
418.4	0.0163836
419	0.0164673
419.6	0.0138356
420.2	0.0087433
420.8	0.0157414
421.4	0.0168535
422	0.0170389
422.6	0.0783957
423.2	0.042923
423.8	0.0167917
424.4	0.0157007
425	0.0144326
425.6	0.0145776
426.2	0.0145975
426.8	0.0149949
427.4	0.0156626
428	0.0157809
428.6	0.0140419
429.2	0.0145683
429.8	0.0149062
430.4	0.0141124
431	0.0147236
431.6	0.0136276
432.2	0.0137557
432.8	0.0131525
433.4	0.0148476
434	0.0157366
434.6	0.0140354
435.2	0.0160298
435.8	0.0192523
436.4	0.0165411
437	0.0139226
437.6	0.0131413
438.2	0.0136089
438.8	0.0127827
439.4	0.0130734
440	0.0128716
440.6	0.0127471
441.2	0.0144057
441.8	0.0148893
442.4	0.0144572
443	0.0137462
443.6	0.0176787
444.2	0.0136624
444.8	0.0137003
445.4	0.0136457
446	0.0137881
446.6	0.0133179
447.2	0.0134895
447.8	0.0132509
448.4	0.0129197
449	0.0128659
449.4	0.0130541