File: lasermedia/data/007-ems.txt
# Optical emission spectrum of Ce:LiCaALF6 (Ce:LiCaAlF6)
# assuming unity concentration per meter.  This data was part of the NASA
# Laser Spectra Database found on the web until December of 2005 which
# was created by Pat Cross working at NASA Langley Research Center, Internal
# Operations Group, Aerospace Electronics Systems Division, Remote Sensing.
#
# The spectra was collected by GA on 15 August 1994 and was
# annotated on  6 April 1995.  The sample name was "" was a 9.990
# long piece of :.
# The incident light was unpolarized.
#
# Spectra were recorded from 260nm to 399.6nm
# every 0.1nm at room temperature.  The
# excitation wavelength was unknown.
#
# SLIT WIDTH IS 1500 MICRONS, SAMPLE IS RECTANGULAR SHAPE. C-AXIS IS CUT PERP. TO LONG AXIS OF CRYSTAL. PUMP LIGHT IS ALONG A(=B & LONG AXIS ) OF CRYSTAL. SAMPLE IS PLACED SO THAT C-AXIS IS IN THE SAME DIRECTION AS EMISSION IS OBSERVED. CONCENTRATION IS ATOMIC PERCENT. FIVE INTENSITY POINTS IN MIDDLE OF DATA FILE ARE MISSING. INTENSITY VALUES SET TO ZERO. FORMAT(1X,G15.8).
#
##Wavelength (nm)	Absorbance (/meter)
260	0.0309733
260.5	0.0319369
261	0.0332706
261.5	0.0299181
262	0.029834
262.5	0.0298792
263	0.028908
263.5	0.0284777
264	0.0274639
264.5	0.0286358
265	0.029297
265.5	0.0246546
266	0.0280875
266.5	0.0254326
267	0.0246534
267.5	0.0278403
268	0.0284702
268.5	0.0292619
269	0.0299344
269.5	0.0311
270	0.0310887
270.5	0.0350422
271	0.038184
271.5	0.0407297
272	0.0488363
272.5	0.05584
273	0.065752
273.5	0.0759802
274	0.0925471
274.5	0.114581
275	0.14119
275.5	0.172419
276	0.213473
276.5	0.258127
277	0.311238
277.5	0.369155
278	0.413935
278.5	0.481813
279	0.536154
279.5	0.59471
280	0
280.5	0.673455
281	0.747393
281.5	0.773892
282	0.799752
282.5	0.832361
283	0.880742
283.5	0.89364
284	0.935948
284.5	0.954944
285	0.969724
285.5	0.983375
286	0.977917
286.5	0.974806
287	0.978055
287.5	0.964279
288	0.948257
288.5	0.937943
289	0.92236
289.5	0.899449
290	0.825799
290.5	0.815147
291	0.765223
291.5	0.733404
292	0.706566
292.5	0.669289
293	0.631862
293.5	0.599378
294	0.555238
294.5	0.538651
295	0.518237
295.5	0.496405
296	0.47815
296.5	0.463545
297	0.45273
297.5	0.436205
298	0.430446
298.5	0.410472
299	0.407335
299.5	0.3981
300	0.386444
300.5	0.375616
301	0.369456
301.5	0.370911
302	0.374424
302.5	0.36785
303	0.370573
303.5	0.372329
304	0.376997
304.5	0.369594
305	0.372467
305.5	0.367059
306	0.36716
306.5	0.366758
307	0.354977
307.5	0.351213
308	0.348164
308.5	0.342631
309	0.334663
309.5	0.332806
310	0.327461
310.5	0.318566
311	0.311928
311.5	0.297838
312	0.290962
312.5	0.280624
313	0.271791
313.5	0.260423
314	0.251189
314.5	0.242306
315	0.235731
315.5	0.220788
316	0.208329
316.5	0.199383
317	0.188354
317.5	0.178254
318	0.16848
318.5	0.157815
319	0.148442
319.5	0.124081
320	0.12966
320.5	0.122084
321	0.113544
321.5	0.106636
322	0.0982447
322.5	0.0907517
323	0.084157
323.5	0.0784921
324	0.0709364
324.5	0.0688486
325	0.0639804
325.5	0.0592138
326	0.0542666
326.5	0.0505677
327	0.0470521
327.5	0.0432429
328	0.0416958
328.5	0.0382756
329	0.0352681
329.5	0.0334889
330	0.0319118
330.5	0.0291088
331	0.0267525
331.5	0.02576
332	0.0244301
332.5	0.0222318
333	0.0212231
333.5	0.0189659
334	0.018139
334.5	0.0173636
335	0.0164628
335.5	0.0153662
336	0.0148354
336.5	0.0140513
337	0.0134365
337.5	0.0123993
338	0.0126711
338.5	0.0120541
339	0.0109694
339.5	0.0107137
340	0.00897755
340.5	0.0100464
341	0.00938771
341.5	0.0085674
342	0.00833703
342.5	0.00796991
343	0.00790429
343.5	0.00743818
344	0.00707319
344.5	0.00575777
345	0.00647922
345.5	0.00618574
346	0.00575639
346.5	0.00563744
347	0.00567935
347.5	0.00528199
348	0.00493695
348.5	0.00494034
349	0.0047815
349.5	0.00396796
350	0.00414022
350.5	0.00405779
351	0.00271527
351.5	0.00312393
352	0.00341112
352.5	0.00280461
353	0.00275781
353.5	0.0027016
354	0.00259118
354.5	0.00288566
355	0.00214263
355.5	0.00264589
356	0.0017922
356.5	0.00207162
357	0.00228353
357.5	0.00207463
358	0.00114756
358.5	0.0011027
359	0.00046618
359.5	0.000421287
360	0
360.5	0.000769175
361	0.000843503
361.5	0.000269206
362	0
362.5	0
363	0
363.5	0
364	0
364.5	0
365	0.000158028
365.5	0.00033913
366	0
366.5	0
367	0
367.5	0
368	0
368.5	0
369	0
369.5	0
370	0
370.5	0
371	0
371.5	0
372	0
372.5	0
373	0
373.5	0
374	0
374.5	0
375	0
375.5	0
376	0
376.5	0
377	0
377.5	0
378	0
378.5	0
379	0
379.5	0
380	0
380.5	0
381	0
381.5	0
382	0
382.5	0
383	0
383.5	0
384	0
384.5	0
385	0
385.5	0
386	0
386.5	0
387	0
387.5	0
388	0
388.5	0
389	0
389.5	0
390	0
390.5	0
391	0
391.5	0
392	0
392.5	0
393	0
393.5	0
394	0
394.5	0
395	0
395.5	0
396	0
396.5	0
397	0
397.5	0
398	0
398.5	0
399	0
399.5	0
399.6	0