File: lasermedia/data/008-ems.txt
# Optical emission spectrum of Ce:LiCaALF6 (Ce:LiCaAlF6)
# assuming unity concentration per meter.  This data was part of the NASA
# Laser Spectra Database found on the web until December of 2005 which
# was created by Pat Cross working at NASA Langley Research Center, Internal
# Operations Group, Aerospace Electronics Systems Division, Remote Sensing.
#
# The spectra was collected by GA on 15 August 1994 and was
# annotated on  6 April 1995.  The sample name was "" was a 9.990
# long piece of :.
# The incident light was unpolarized.
#
# Spectra were recorded from 260nm to 399.6nm
# every 0.1nm at room temperature.  The
# excitation wavelength was unknown.
#
# SLIT WIDTH IS 1500 MICRONS, SAMPLE IS RECTANGULAR SHAPE. C-AXIS IS CUT PERP. TO LONG AXIS OF CRYSTAL. PUMP LIGHT IS ALONG A(=B & LONG AXIS ) OF CRYSTAL. POLARIZER AFTER SAMPLE IS PLACED PARALLEL TO THE C-AXIS (P-POL). CONCENTRATION IS ATOMIC PERCENT. 41 INTENSITY VALUES ARE MISSING FROM MIDDLE OF DATA FILE. INTENSITY VALUES SET TO ZERO. FORMAT(1X,G15.8).
#
##Wavelength (nm)	Absorbance (/meter)
260	0.00918293
260.5	0.0108711
261	0.0167476
261.5	0.016705
262	0.0128145
262.5	0.0157807
263	0.0189423
263.5	0.0148332
264	0.018251
264.5	0.0121909
265	0.0144368
265.5	0.0137794
266	0.0185265
266.5	0.0162738
267	0.0161181
267.5	0.0080233
268	0.0149396
268.5	0.0156193
269	0.0191057
269.5	0.0195446
270	0.018366
270.5	0.0206787
271	0.0268046
271.5	0.0261936
272	0.0354907
272.5	0.0414744
273	0.04245
273.5	0.0570163
274	0.0584154
274.5	0.0699362
275	0.0842115
275.5	0.0801286
276	0.10118
276.5	0.122759
277	0.147375
277.5	0.166731
278	0.187557
278.5	0.216997
279	0.232544
279.5	0.271749
280	0.279532
280.5	0.310345
281	0.352577
281.5	0.376061
282	0.407077
282.5	0.450314
283	0.499101
283.5	0.539418
284	0.605095
284.5	0.647191
285	0.69739
285.5	0.754887
286	0.809755
286.5	0.847646
287	0.863222
287.5	0.90087
288	0.943759
288.5	0.977859
289	0.992169
289.5	0.976022
290	0.990525
290.5	0.977473
291	0.994199
291.5	0.971478
292	0.971865
292.5	0.93119
293	0.887866
293.5	0.896626
294	0.849038
294.5	0.817074
295	0.815653
295.5	0.814193
296	0.75684
296.5	0.71051
297	0.686764
297.5	0.680615
298	0.668027
298.5	0.663492
299	0.646669
299.5	0.612395
300	0.594885
300.5	0.603423
301	0.602775
301.5	0
302	0
302.5	0.6032
303	0.614483
303.5	0.62798
304	0.627719
304.5	0.648197
305	0.648052
305.5	0.658629
306	0.658349
306.5	0.656695
307	0.647008
307.5	0.634787
308	0.613371
308.5	0.599826
309	0.59213
309.5	0.576506
310	0.565735
310.5	0.553853
311	0.529431
311.5	0.516059
312	0.497322
312.5	0.474553
313	0.457846
313.5	0.435734
314	0.41924
314.5	0.397012
315	0.380151
315.5	0.357536
316	0.338915
316.5	0.323494
317	0.30438
317.5	0.280219
318	0.262815
318.5	0.247704
319	0.232998
319.5	0.219491
320	0.205762
320.5	0.194218
321	0.184937
321.5	0.174572
322	0.158242
322.5	0.145287
323	0.138151
323.5	0.127719
324	0.11953
324.5	0.114029
325	0.104505
325.5	0.0980953
326	0.0954849
326.5	0.087902
327	0.0787692
327.5	0.0770918
328	0.0702485
328.5	0.0674108
329	0.063179
329.5	0.0616543
330	0.059039
330.5	0.0527855
331	0.0492488
331.5	0.0473963
332	0.0459035
332.5	0.0425708
333	0.0407145
333.5	0.037172
334	0.0352509
334.5	0.035305
335	0.0310722
335.5	0.0318486
336	0.029707
336.5	0.0281553
337	0.0291482
337.5	0.0283602
338	0.0266596
338.5	0.0215585
339	0.0225321
339.5	0.021371
340	0.0213168
340.5	0.0211795
341	0.0204525
341.5	0.0168065
342	0.0184734
342.5	0.0174553
343	0.0172735
343.5	0.0146108
344	0.0156898
344.5	0.0156415
345	0.0151339
345.5	0.0142396
346	0.0132196
346.5	0.0126114
347	0.0123165
347.5	0.0125612
348	0.0132495
348.5	0.00965387
349	0.0116958
349.5	0.00848632
350	0.0087637
350.5	0.0081311
351	0.00764565
351.5	0.00849057
352	0.0087958
352.5	0.0093965
353	0.00685816
353.5	0.0043935
354	0.00935821
354.5	0.00233182
355	0.00672493
355.5	0.00545731
356	0.00614715
356.5	0.00611544
357	0.00481417
357.5	0.00562351
358	0.00538026
358.5	0.00563676
359	0
359.5	0.00500309
360	0.00438209
360.5	0.00653688
361	0.00682152
361.5	0.00612936
362	0.007035
362.5	0.00504496
363	0.0055569
363.5	0.00551165
364	0.00561742
364.5	0.0073848
365	0.00721125
365.5	0.00573625
366	0
366.5	0
367	0.00271478
367.5	0.00622237
368	0.00634187
368.5	0.00554694
369	0.00535048
369.5	0.00541042
370	0.0054168
370.5	0.00442686
371	0.00442048
371.5	0.00366934
372	0.0033964
372.5	0.00381147
373	0.00205994
373.5	0.00146118
374	0.00217945
374.5	0.00394518
375	0.0043965
375.5	0.00495823
376	0.00450537
376.5	0.00457498
377	0
377.5	0
378	0
378.5	0.00347037
379	0.00354559
379.5	0.0010672
380	0.00172203
380.5	0.00128589
381	0.00180963
381.5	0.000886039
382	0
382.5	0.00139254
383	0.000799014
383.5	0.00156889
384	0
384.5	0.000155999
385	0.002522
385.5	0.00153224
386	0.00334332
386.5	0.000417055
387	0
387.5	0
388	0
388.5	0
389	0
389.5	0
390	0
390.5	0
391	0
391.5	0
392	0
392.5	0
393	0.00141004
393.5	0
394	0
394.5	0
395	0
395.5	0
396	0
396.5	0
397	0
397.5	0
398	0
398.5	0
399	0
399.5	0
399.6	0