File: lasermedia/data/009-ems.txt
# Optical emission spectrum of Ce:LiSrALF6 (Ce:LiSrAlF6)
# assuming unity concentration per meter.  This data was part of the NASA
# Laser Spectra Database found on the web until December of 2005 which
# was created by Pat Cross working at NASA Langley Research Center, Internal
# Operations Group, Aerospace Electronics Systems Division, Remote Sensing.
#
# The spectra was collected by GA on 15 August 1994 and was
# annotated on  6 April 1995.  The sample name was "" was a 9.9900
# long piece of :.
# The incident light was unpolarized.
#
# Spectra were recorded from 260nm to 399.6nm
# every 0.1nm at room temperature.  The
# excitation wavelength was unknown.
#
# SLIT WIDTH IS 1500 MICRONS, SAMPLE IS CYLINDRICAL SHAPE. C-AXIS IS CUT PERP. TO LONG AXIS OF CYLINDER. PUMP LIGHT IS ALONG A(=B & LONG AXIS ) OF CRYSTAL. SAMPLE IS PLACED SO THAT C-AXIS IS IN THE SAME DIRECTION AS EMISSION IS OSBERVED. (S-POL) CONCENTRATION IS ATOMIC PERCENT. TEN (10) INTENSITY VALUES MISSING FROM MIDDLE OF FILE. POINTS SET TO ZERO. FORMAT(1X,G15.8).
#
##Wavelength (nm)	Absorbance (/meter)
260	0.0153179
260.5	0.01399
261	0.0149108
261.5	0.0125889
262	0.013229
262.5	0.0105769
263	0.01244
263.5	0.00941046
264	0.0105451
264.5	0.0104973
265	0.00970146
265.5	0.0101825
266	0.0115767
266.5	0.00936556
267	0.0124197
267.5	0.0130953
268	0.0125055
268.5	0.0129925
269	0.0121338
269.5	0.0132901
270	0.0153135
270.5	0.0171068
271	0.0185698
271.5	0.0238017
272	0.0258209
272.5	0.030194
273	0.0411272
273.5	0.0466895
274	0.0596361
274.5	0.0739922
275	0.0935339
275.5	0.116823
276	0.14514
276.5	0.178861
277	0.228674
277.5	0.276185
278	0.322392
278.5	0.390283
279	0.442429
279.5	0.50822
280	0.555905
280.5	0.610817
281	0.689268
281.5	0.734128
282	0.771021
282.5	0.815751
283	0.862349
283.5	0.881658
284	0.934731
284.5	0
285	0.973956
285.5	0.98143
286	0.978084
286.5	0.992772
287	0.990063
287.5	0.971102
288	0.975911
288.5	0.962629
289	0.951446
289.5	0.933253
290	0.893405
290.5	0.855034
291	0.821733
291.5	0.80128
292	0.762895
292.5	0.727407
293	0.697496
293.5	0.668584
294	0.627968
294.5	0.608572
295	0.579457
295.5	0.5545
296	0.53438
296.5	0.510596
297	0.510523
297.5	0.491273
298	0.48277
298.5	0.461839
299	0.44944
299.5	0.444863
300	0.428857
300.5	0.420398
301	0.412967
301.5	0.407245
302	0.400539
302.5	0.395107
303	0.390443
303.5	0.395744
304	0.397816
304.5	0.390023
305	0.389472
305.5	0.376986
306	0.373669
306.5	0.370584
307	0.365167
307.5	0.360502
308	0.357605
308.5	0.347089
309	0.345815
309.5	0.337355
310	0.328882
310.5	0.326579
311	0.317931
311.5	0.311659
312	0.301244
312.5	0.300361
313	0.294422
313.5	0.283848
314	0
314.5	0
315	0.256587
315.5	0.250373
316	0.241276
316.5	0.230862
317	0.221896
317.5	0.213726
318	0.204658
318.5	0.196547
319	0.185104
319.5	0.175964
320	0.166722
320.5	0.157119
321	0.150267
321.5	0.145458
322	0.135044
322.5	0.128485
323	0.121952
323.5	0.114252
324	0.107548
324.5	0.100249
325	0.0950374
325.5	0.0895085
326	0.0849762
326.5	0.0797891
327	0.0744557
327.5	0.0713241
328	0.0659588
328.5	0.0634964
329	0.0602242
329.5	0.0555224
330	0.0521431
330.5	0.0491099
331	0.0469951
331.5	0.045858
332	0.0409534
332.5	0.0397642
333	0.0376943
333.5	0.0357692
334	0.0350522
334.5	0.0311384
335	0.0302273
335.5	0.0285456
336	0.026819
336.5	0.0255081
337	0.0236178
337.5	0.0225792
338	0.0212987
338.5	0.0214175
339	0.0192404
339.5	0.0185422
340	0.0186914
340.5	0.0179194
341	0.0162724
341.5	0.0156814
342	0.0143561
342.5	0.0140971
343	0.0131105
343.5	0.0129635
344	0.0119763
344.5	0.0113425
345	0.0112056
345.5	0.0101557
346	0.00938598
346.5	0.00928357
347	0.00875893
347.5	0.00711256
348	0.00856497
348.5	0.00717615
349	0.00651346
349.5	0.00553631
350	0.00544462
350.5	0.00568796
351	0.00484508
351.5	0.00455365
352	0.00445022
352.5	0.00421325
353	0.00435578
353.5	0.00441865
354	0.00379507
354.5	0.00372988
355	0.00278836
355.5	0.0028463
356	0.0024849
356.5	0.00232238
357	0.0021067
357.5	0.00204166
358	0.00239611
358.5	0.00142673
359	0.0021319
359.5	0.00210365
360	0.00143539
360.5	0.000716167
361	0.00117438
361.5	0.000974086
362	0.000910323
362.5	0.000480916
363	0
363.5	0.000518461
364	0.000633863
364.5	0.00076417
365	0.00109911
365.5	0.000880296
366	0.000834408
366.5	0.000159654
367	0.00156264
367.5	0.000235772
368	3.07299e-05
368.5	0.00129163
369	0.00048025
369.5	0
370	0
370.5	0
371	0
371.5	0
372	0
372.5	0
373	0
373.5	0
374	0.000177137
374.5	0
375	0
375.5	0.000172342
376	0.000814013
376.5	0
377	0.000191115
377.5	0.000445804
378	0.000454133
378.5	0.000910222
379	0.000825079
379.5	0.000703246
380	0.000142383
380.5	0
381	0.000484001
381.5	0.000531642
382	0.00192665
382.5	0.000883888
383	0.00110241
383.5	0.00102468
384	0.000670568
384.5	0.000740603
385	0.00229573
385.5	0.00204702
386	0.0025369
386.5	0.00186538
387	0.0013976
387.5	0.00252357
388	0.00310037
388.5	0.00275867
389	0.00164738
389.5	0.00294378
390	0.00194939
390.5	0.0019504
391	0.00302504
391.5	0.00200661
392	0.00299014
392.5	0.00351956
393	0.00317801
393.5	0.00346524
394	0.00323624
394.5	0.00307067
395	0.00420963
395.5	0.00442936
396	0.00432449
396.5	0.00405145
397	0
397.5	0.00313513
398	0.0051836
398.5	0.00633617
399	0.00631024
399.5	0.00534844
399.6	0.0050205