File: lasermedia/data/010-ems.txt
# Optical emission spectrum of Ce:LiSrALF6 (Ce:LiSrAlF6)
# assuming unity concentration per meter.  This data was part of the NASA
# Laser Spectra Database found on the web until December of 2005 which
# was created by Pat Cross working at NASA Langley Research Center, Internal
# Operations Group, Aerospace Electronics Systems Division, Remote Sensing.
#
# The spectra was collected by GA on 15 August 1994 and was
# annotated on  6 April 1995.  The sample name was "" was a 9.990
# long piece of :.
# The incident light was unpolarized.
#
# Spectra were recorded from 260nm to 399.6nm
# every 0.1nm at room temperature.  The
# excitation wavelength was unknown.
#
# SLIT WIDTH IS 1500 MICRONS, SAMPLE IS CYLINDRICAL SHAPE. C-AXIS IS CUT PERP. TO LONG AXIS OF CYLINDER. PUMP LIGHT IS ALONG A(=B & LONG AXIS ) OF CRYSTAL. POLARIZER AFTER CRYSTAL IS PLACED PARALLEL TO THE C-AXIS (P-POL). CONCENTRATION IS ATOMIC PERCENT. TEN (10) INTENSITY VALUES MISSING FROM MIDDLE OF FILE. POINTS SET TO ZERO. FORMAT(1X,G15.8).
#
##Wavelength (nm)	Absorbance (/meter)
260	0
260.5	0
261	0
261.5	0
262	0
262.5	0
263	0
263.5	0
264	0
264.5	0
265	0
265.5	0
266	0
266.5	0
267	0
267.5	0
268	0
268.5	0
269	0
269.5	0
270	0
270.5	0
271	0.00220446
271.5	0.00130883
272	0.0025994
272.5	0.00584742
273	0.00776052
273.5	0.00557411
274	0.00611032
274.5	0.0098619
275	0.0150873
275.5	0.0220992
276	0.0298938
276.5	0.0302153
277	0.0464107
277.5	0.054995
278	0.0596835
278.5	0.0749296
279	0.0843224
279.5	0.103482
280	0.117867
280.5	0.137222
281	0.157837
281.5	0
282	0.209256
282.5	0.241736
283	0.279603
283.5	0.317698
284	0.360913
284.5	0
285	0.458631
285.5	0.523234
286	0.563343
286.5	0.62876
287	0.668978
287.5	0.723502
288	0.785079
288.5	0.845942
289	0.877937
289.5	0.922827
290	0.93875
290.5	0.967351
291	0.977312
291.5	0.990437
292	0.996329
292.5	0.9913
293	0.971577
293.5	0.95498
294	0.919772
294.5	0.896865
295	0.875347
295.5	0.85119
296	0.828135
296.5	0.801577
297	0.777966
297.5	0.738651
298	0.712183
298.5	0.684296
299	0.649653
299.5	0.620089
300	0.58497
300.5	0.564821
301	0.542302
301.5	0.527937
302	0.511181
302.5	0.498105
303	0.491349
303.5	0.483343
304	0.490159
304.5	0.476865
305	0.471101
305.5	0.474444
306	0.48246
306.5	0.473433
307	0.464702
307.5	0.449524
308	0.444444
308.5	0.431726
309	0.421756
309.5	0.409087
310	0.401409
310.5	0.387321
311	0.385486
311.5	0.366935
312	0.358343
312.5	0.346716
313	0.335774
313.5	0.325933
314	0.317391
314.5	0.305476
315	0.297004
315.5	0.283433
316	0.273145
316.5	0.260744
317	0.250308
317.5	0.236468
318	0.226329
318.5	0.216359
319	0.207252
319.5	0.194812
320	0.187659
320.5	0.177341
321	0.166716
321.5	0.158958
322	0.151796
322.5	0.146597
323	0.138046
323.5	0.129643
324	0.124196
324.5	0.11754
325	0.112996
325.5	0.105923
326	0.100456
326.5	0.0979425
327	0.0934752
327.5	0.0888165
328	0.0875655
328.5	0.0825863
329	0.077371
329.5	0.0738601
330	0.070748
330.5	0.06687
331	0.0647609
331.5	0.0609315
332	0.0588085
332.5	0.0572381
333	0.0549633
333.5	0.0526339
334	0.0506796
334.5	0.0474335
335	0.0462728
335.5	0.0439712
336	0.0433006
336.5	0.04162
337	0.039497
337.5	0.0380635
338	0.0328899
338.5	0.0291855
339	0.0355704
339.5	0.0335952
340	0.0317937
340.5	0.0309831
341	0.0310188
341.5	0.0298095
342	0.0280823
342.5	0.0253244
343	0.0253482
343.5	0.025127
344	0.024256
344.5	0.0226677
345	0.0219157
345.5	0.0220079
346	0.0211429
346.5	0.0225317
347	0.0210556
347.5	0.0196905
348	0.0188839
348.5	0.0179841
349	0.0168194
349.5	0.0148413
350	0.0155625
350.5	0.0143343
351	0.0140724
351.5	0.0143571
352	0.0133919
352.5	0.0129454
353	0.00421766
353.5	0.0114702
354	0.0115913
354.5	0.00995833
355	0.0101944
355.5	0.00961875
356	0.00864177
356.5	0.00904742
357	0.00321647
357.5	0.00691885
358	0.00704315
358.5	0.00537897
359	0.00465565
359.5	0.00390079
360	0.00194762
360.5	0.000526349
361	0
361.5	0
362	0
362.5	0
363	0
363.5	0
364	0
364.5	0
365	0
365.5	0
366	5.58145e-05
366.5	0
367	0.000725694
367.5	0.000759077
368	0.00201607
368.5	0.00217907
369	0.00131736
369.5	0.00167034
370	0.00148274
370.5	0.00212738
371	0.00200982
371.5	0.00240982
372	0.00283859
372.5	0.00383879
373	0.00341994
373.5	0.00392927
374	0.00347827
374.5	0.00515982
375	0.00743879
375.5	0.0060001
376	0.00607073
376.5	0.0065874
377	0.00811052
377.5	0.00693601
378	0.00809306
378.5	0.00906012
379	0.00960952
379.5	0.00999603
380	0.00165288
380.5	0.00947827
381	0.0112718
381.5	0.0103413
382	0.0108948
382.5	0.0128234
383	0.0120903
383.5	0.0125833
384	0.0131984
384.5	0.0137173
385	0.0125913
385.5	0.0134117
386	0.013501
386.5	0.0145238
387	0.0150714
387.5	0.0182579
388	0.0181081
388.5	0.0171488
389	0.0166012
389.5	0.015496
390	0.0143611
390.5	0.0155873
391	0.0164802
391.5	0.0157778
392	0.0167242
392.5	0.0200099
393	0.0200982
393.5	0.020374
394	0.0211498
394.5	0.0202232
395	0.0195337
395.5	0.0195913
396	0.0193978
396.5	0.0197669
397	0.0205933
397.5	0.0210476
398	0.0227054
398.5	0.0244196
399	0.0242262
399.5	0.0213601
399.6	0.0213264