File: lasermedia/data/011-ems.txt
# Optical emission spectrum of Ce:LiYF4 (Ce:LiYF4)
# assuming unity concentration per meter.  This data was part of the NASA
# Laser Spectra Database found on the web until December of 2005 which
# was created by Pat Cross working at NASA Langley Research Center, Internal
# Operations Group, Aerospace Electronics Systems Division, Remote Sensing.
#
# The spectra was collected by GA on 15 August 1994 and was
# annotated on  6 April 1995.  The sample name was "" was a 9.990
# long piece of :.
# The incident light was unpolarized.
#
# Spectra were recorded from 279.8nm to 399.4nm
# every 0.1nm at room temperature.  The
# excitation wavelength was unknown.
#
# SLIT WIDTH IS 1500 MICRONS, SAMPLE IS CYLINDRICAL SHAPE. C-AXIS IS CUT PERP. TO LONG AXIS OF CYLINDER. PUMP LIGHT IS ALONG A(=B & LONG AXIS ) OF CRYSTAL. SAMPLE IS PLACED SO THAT C-AXIS IS IN THE SAME DIRECTION AS EMISSION IS OBSERVED. (S-POLARIZATION) CONCENTRATION IS ATOMIC PERCENT. FORMAT(1X,G15.8).
#
##Wavelength (nm)	Absorbance (/meter)
279.8	0.00103098
280.2	0.000997031
280.6	0.00127641
281	0.00102147
281.4	0.000755566
281.8	0.00256838
282.2	0.00147032
282.6	0.00133896
283	0.00116684
283.4	0.000968947
283.8	0.000453091
284.2	0.00129798
284.6	0.00131561
285	0.00136028
285.4	0.00127863
285.8	0.00133544
286.2	0.00128478
286.6	0.00160606
287	0.0014095
287.4	0.00222508
287.8	0.00180704
288.2	0.00232572
288.6	0.00187374
289	0.00200129
289.4	0.00201635
289.8	0.00203756
290.2	0.00197613
290.6	0.00172015
291	0.00108318
291.4	0.00164907
291.8	0.00221806
292.2	0.00289749
292.6	0.00205833
293	0.00174473
293.4	0.0017244
293.8	0.00212386
294.2	0.0018597
294.6	0.00246321
295	0.0024009
295.4	0.00250022
295.8	0.00238072
296.2	0.00280095
296.6	0.00309057
297	0.0031795
297.4	0.0036581
297.8	0.00397932
298.2	0.00487143
298.6	0.00515183
299	0.0062692
299.4	0.0077679
299.8	0.00893631
300.2	0.0109755
300.6	0.013978
301	0.0165462
301.4	0.0197715
301.8	0.0251733
302.2	0.0321593
302.6	0.0422827
303	0.0580815
303.4	0.0825366
303.8	0.117683
304.2	0.168095
304.6	0.235117
305	0.315244
305.4	0.411228
305.8	0.512521
306.2	0.6132
306.6	0.70421
307	0.785785
307.4	0.850613
307.8	0.902349
308.2	0.930521
308.6	0.946772
309	0.949478
309.4	0.92976
309.8	0.903549
310.2	0.87248
310.6	0.836498
311	0.795074
311.4	0.753138
311.8	0.71695
312.2	0.679344
312.6	0.643873
313	0.612878
313.4	0.582146
313.8	0.557251
314.2	0.539449
314.6	0.525071
315	0.516573
315.4	0.511248
315.8	0.51195
316.2	0.51982
316.6	0.533701
317	0.552175
317.4	0.574716
317.8	0.605462
318.2	0.641035
318.6	0.683542
319	0.731899
319.4	0.77815
319.8	0.820817
320.2	0.856434
320.6	0.888234
321	0.915002
321.4	0.939956
321.8	0.959483
322.2	0.976363
322.6	0.985899
323	0.997031
323.4	0.999517
323.8	0.998215
324.2	0.993974
324.6	0.986031
325	0.969663
325.4	0.953369
325.8	0.933154
326.2	0.91231
326.6	0.886098
327	0.860194
327.4	0.831568
327.8	0.802972
328.2	0.773382
328.6	0.742401
329	0.708027
329.4	0.676667
329.8	0.646374
330.2	0.613975
330.6	0.582263
331	0.551488
331.4	0.521824
331.8	0.492555
332.2	0.465304
332.6	0.437952
333	0.411637
333.4	0.386947
333.8	0.363002
334.2	0.340491
334.6	0.318506
335	0.297823
335.4	0.278121
335.8	0.260129
336.2	0.242796
336.6	0.227555
337	0.211626
337.4	0.196018
337.8	0.181201
338.2	0.16887
338.6	0.156788
339	0.145448
339.4	0.135913
339.8	0.126626
340.2	0.116793
340.6	0.108547
341	0.100905
341.4	0.0927405
341.8	0.0856244
342.2	0.0791622
342.6	0.0732791
343	0.0679929
343.4	0.0627329
343.8	0.0579206
344.2	0.0537446
344.6	0.0494866
345	0.0459234
345.4	0.0423003
345.8	0.0391189
346.2	0.0363265
346.6	0.0337214
347	0.0310081
347.4	0.0286414
347.8	0.0265585
348.2	0.0246628
348.6	0.0226721
349	0.0210017
349.4	0.0196179
349.8	0.0179841
350.2	0.0167627
350.6	0.0155487
351	0.014468
351.4	0.0135626
351.8	0.0126054
352.2	0.0119442
352.6	0.0110723
353	0.0102589
353.4	0.00960521
353.8	0.00904733
354.2	0.00850452
354.6	0.00803411
355	0.00747257
355.4	0.0070712
355.8	0.00673171
356.2	0.00630738
356.6	0.00599084
357	0.0057495
357.4	0.00550376
357.8	0.00521794
358.2	0.00493476
358.6	0.00486236
359	0.00450546
359.4	0.00442208
359.8	0.00432861
360.2	0.00425255
360.6	0.00410804
361	0.00400755
361.4	0.00384387
361.8	0.00367727
362.2	0.00363412
362.6	0.00354401
363	0.0034523
363.4	0.00353626
363.8	0.00336337
364.2	0.00342173
364.6	0.00361305
365	0.00377995
365.4	0.00364362
365.8	0.00341646
366.2	0.00312026
366.6	0.00323977
367	0.00315683
367.4	0.00303148
367.8	0.00295615
368.2	0.00302299
368.6	0.003017
369	0.0030306
369.4	0.0030638
369.8	0.00301992
370.2	0.0029854
370.6	0.0029304
371	0.00297429
371.4	0.00305898
371.8	0.00296317
372.2	0.00299623
372.6	0.00294679
373	0.00301436
373.4	0.00295922
373.8	0.00300778
374.2	0.00297195
374.6	0.00305283
375	0.00306454
375.4	0.0030739
375.8	0.00299725
376.2	0.00308691
376.6	0.00312568
377	0.00311866
377.4	0.00299198
377.8	0.00309511
378.2	0.00303309
378.6	0.0030521
379	0.00318097
379.4	0.00320539
379.8	0.00307009
380.2	0.00302914
380.6	0.00301978
381	0.00312889
381.4	0.00307609
381.8	0.00307858
382.2	0.00309935
382.6	0.00306059
383	0.0032092
383.4	0.00316517
383.8	0.0031991
384.2	0.00322002
384.6	0.00323582
385	0.00316839
385.4	0.00306556
385.8	0.00323611
386.2	0.00302314
386.6	0.00304523
387	0.00317029
387.4	0.00310052
387.8	0.00320291
388.2	0.00319121
388.6	0.0032111
389	0.00320349
389.4	0.00322675
389.8	0.00315171
390.2	0.00308355
390.6	0.00325235
391	0.00321461
391.4	0.00316502
391.8	0.003311
392.2	0.00333792
392.6	0.00322397
393	0.00322207
393.4	0.00324299
393.8	0.00328102
394.2	0.00333133
394.6	0.00325469
395	0.00327795
395.4	0.00330106
395.8	0.00339584
396.2	0.00337244
396.6	0.00328775
397	0.00350276
397.4	0.00353509
397.8	0.00365445
398.2	0.00349721
398.6	0.00354387
399	0.00342363
399.4	0.00344411