File: lasermedia/data/012-ems.txt
# Optical emission spectrum of Ce:LiYF4 (Ce:LiYF4)
# assuming unity concentration per meter.  This data was part of the NASA
# Laser Spectra Database found on the web until December of 2005 which
# was created by Pat Cross working at NASA Langley Research Center, Internal
# Operations Group, Aerospace Electronics Systems Division, Remote Sensing.
#
# The spectra was collected by GA on 15 August 1994 and was
# annotated on  6 April 1995.  The sample name was "" was a 9.990
# long piece of :.
# The incident light was unpolarized.
#
# Spectra were recorded from 279.8nm to 399.4nm
# every 0.1nm at room temperature.  The
# excitation wavelength was unknown.
#
# SLIT WIDTH IS 1500 MICRONS, SAMPLE IS CYLINDRICAL SHAPE. C-AXIS IS CUT PERP. TO LONG AXIS OF CYLINDER. PUMP LIGHT IS ALONG A(=B & LONG AXIS) OF CRYSTAL. POLARIZER AFTER SAMPLE IS PLACED PARALLEL TO THE C-AXIS. (P-POL) CONCENTRATION IS ATOMIC PERCENT. FORMAT(1X,G15.8).
#
##Wavelength (nm)	Absorbance (/meter)
279.8	9.25162e-05
280.2	0.000618123
280.6	0.00088247
281	0
281.4	0
281.8	0
282.2	0.000208026
282.6	0
283	0
283.4	0
283.8	0
284.2	0
284.6	0
285	0
285.4	0
285.8	0
286.2	0
286.6	0.000213494
287	0
287.4	0
287.8	0
288.2	0
288.6	0.000495113
289	0.00044318
289.4	0.000215997
289.8	0
290.2	0
290.6	3.73953e-06
291	2.18856e-05
291.4	0.000872803
291.8	0.000643532
292.2	0.00026723
292.6	0.000397393
293	0.000153875
293.4	0.000550426
293.8	0.000557175
294.2	0.000313741
294.6	0.000897737
295	0.000489004
295.4	0.000816303
295.8	0.00103894
296.2	0.000966988
296.6	0.000565716
297	0.00142879
297.4	0.00240326
297.8	0.00173151
298.2	0.00203068
298.6	0.00278748
299	0.00330407
299.4	0.00400667
299.8	0.00498458
300.2	0.00639712
300.6	0.00810847
301	0.0104897
301.4	0.0133212
301.8	0.0178264
302.2	0.0233684
302.6	0.0318284
303	0.0453643
303.4	0.0665287
303.8	0.095891
304.2	0.136687
304.6	0.190292
305	0.25513
305.4	0.335081
305.8	0.421449
306.2	0.512254
306.6	0.600152
307	0.684503
307.4	0.765569
307.8	0.827015
308.2	0.891106
308.6	0.933145
309	0.968233
309.4	0.991388
309.8	0.997592
310.2	0.998316
310.6	0.983725
311	0.959728
311.4	0.936443
311.8	0.908733
312.2	0.8768
312.6	0.838177
313	0.80577
313.4	0.769092
313.8	0.735688
314.2	0.699924
314.6	0.668881
315	0.641337
315.4	0.613876
315.8	0.590816
316.2	0.568931
316.6	0.550367
317	0.537579
317.4	0.526002
317.8	0.518944
318.2	0.514306
318.6	0.511435
319	0.518256
319.4	0.521209
319.8	0.528279
320.2	0.534365
320.6	0.541612
321	0.548991
321.4	0.558101
321.8	0.563617
322.2	0.569619
322.6	0.574233
323	0.580354
323.4	0.583984
323.8	0.585977
324.2	0.587175
324.6	0.584185
325	0.579464
325.4	0.578444
325.8	0.571102
326.2	0.56676
326.6	0.556274
327	0.548101
327.4	0.53892
327.8	0.527117
328.2	0.514994
328.6	0.500747
329	0.486548
329.4	0.471638
329.8	0.457723
330.2	0.443572
330.6	0.426099
331	0.409279
331.4	0.394415
331.8	0.378781
332.2	0.36285
332.6	0.347429
333	0.33208
333.4	0.315817
333.8	0.301025
334.2	0.285272
334.6	0.27169
335	0.256708
335.4	0.243482
335.8	0.231086
336.2	0.217646
336.6	0.206152
337	0.194527
337.4	0.183044
337.8	0.173258
338.2	0.162203
338.6	0.152559
339	0.143674
339.4	0.133745
339.8	0.125679
340.2	0.118104
340.6	0.110464
341	0.102728
341.4	0.0964615
341.8	0.0896195
342.2	0.0833136
342.6	0.07808
343	0.0726377
343.4	0.067843
343.8	0.0630863
344.2	0.058364
344.6	0.054612
345	0.0511233
345.4	0.047554
345.8	0.044216
346.2	0.0409528
346.6	0.0380121
347	0.0353657
347.4	0.0330526
347.8	0.0306588
348.2	0.0284881
348.6	0.0265249
349	0.0245664
349.4	0.0227444
349.8	0.0212439
350.2	0.0197409
350.6	0.0185796
351	0.0172499
351.4	0.0162036
351.8	0.0152357
352.2	0.0141883
352.6	0.0132535
353	0.0123947
353.4	0.0116494
353.8	0.0108842
354.2	0.0101123
354.6	0.00958293
355	0.00896467
355.4	0.00844962
355.8	0.00816837
356.2	0.00759413
356.6	0.0071442
357	0.00685867
357.4	0.00632796
357.8	0.0060976
358.2	0.00574696
358.6	0.00554162
359	0.00512265
359.4	0.00500119
359.8	0.00473891
360.2	0.00473203
360.6	0.00460547
361	0.00451187
361.4	0.0041999
361.8	0.00405969
362.2	0.00395329
362.6	0.00384677
363	0.00378734
363.4	0.00372423
363.8	0.00356587
364.2	0.00376349
364.6	0.00398828
365	0.00419765
365.4	0.00405969
365.8	0.00364238
366.2	0.00338509
366.6	0.0034794
367	0.00333764
367.4	0.00342008
367.8	0.00323954
368.2	0.00320087
368.6	0.00314583
369	0.0032074
369.4	0.00307419
369.8	0.00314097
370.2	0.0031004
370.6	0.00291084
371	0.00293065
371.4	0.00314204
371.8	0.00313836
372.2	0.0029354
372.6	0.0030367
373	0.00311143
373.4	0.00304702
373.8	0.00291025
374.2	0.00292188
374.6	0.0030246
375	0.00302496
375.4	0.00310491
375.8	0.00296861
376.2	0.00317288
376.6	0.00309791
377	0.00361996
377.4	0.00957629
377.8	0.0047681
378.2	0.00307596
378.6	0.00319933
379	0.00297122
379.4	0.00314631
379.8	0.00313705
380.2	0.00306019
380.6	0.00300017
381	0.00317798
381.4	0.00317217
381.8	0.00309103
382.2	0.00309589
382.6	0.00315698
383	0.00304714
383.4	0.00311381
383.8	0.00293481
384.2	0.0028373
384.6	0.0030641
385	0.00324109
385.4	0.00303255
385.8	0.00304382
386.2	0.0029781
386.6	0.00312187
387	0.00291476
387.4	0.00326493
387.8	0.00309091
388.2	0.00299317
388.6	0.00301808
389	0.0030284
389.4	0.00309874
389.8	0.00296624
390.2	0.00297265
390.6	0.00290835
391	0.00305912
391.4	0.00297478
391.8	0.00291974
392.2	0.00303801
392.6	0.0030456
393	0.00305829
393.4	0.00325852
393.8	0.00308012
394.2	0.00296861
394.6	0.0029851
395	0.00308617
395.4	0.00295794
395.8	0.00298617
396.2	0.0030609
396.6	0.00293172
397	0.003331
397.4	0.00327798
397.8	0.00338402
398.2	0.00315686
398.6	0.00322436
399	0.00333076
399.4	0.00303575