File: lasermedia/data/050-abs.txt
# Optical absorption spectrum of Program fragment delivered error ``Can't call method "sample_" on an undefined value at abs.template line 1.'':GSGG (Nd:GaScGa Garnet)
# assuming unity concentration per meter.  This data was part of the NASA
# Laser Spectra Database found on the web until December of 2005 which
# was created by Pat Cross working at NASA Langley Research Center, Internal
# Operations Group, Aerospace Electronics Systems Division, Remote Sensing.
#
# The spectra was collected by MS on 22 January 1988 and was
# annotated on 28 January 1988.  The sample name was "" was a 3.2000
# long piece of :.
# The incident light was unpolarized.
#
# Spectra were recorded from 325 to 830nm
# every 0.2nm at room temperature.
#
# FILE NAME ON PE-3600 = 001 GSGG2.SP ON PC = 001GSGG2.SP NO_POINTS = 2526. pts DATA_INTV = 0.000200 µm MIN_LAMBDA = 0.325000 µm MIN_DATA = 2794.9 MAX_LAMBDA = 0.830000 µm MAX_DATA = 82670.0 SCANSPEED = .01500000 µm/min SLITWIDTH= 0.00020 µmITA = 0. RESP = 0.5 sec ISMS = 0. DATE=88/01/22 INST = 509. ? = 0. THIS ND:CR:GSGG SAMPLE WAS OBTAINED FROM ALLIED. IT IS A SLICED CROSS-SECTION FROM A BOULE. THE MATERIAL COMPOSITION IS CR-2.47at.% (2*10(20)ions/cm3),ND-1.65 at.% (2*10(20)). converted to AU by Mark Storm. header added by hand. ND:CR:GSGG,.125IN THICK,HIGH RES., STORM.
#
##Wavelength (nm)	Absorbance (/meter)
325	6311
326.8	7069
328.6	7515
330.4	8319
332.2	8287
334	8844
335.8	6913
337.6	5757
339.4	5284
341.2	5543
343	5520
344.8	6665
346.6	5708
348.4	6390
350.2	7101
352	13252
353.8	21969
355.6	14468
357.4	8771
359.2	7780
361	12091
362.8	10422
364.6	7472
366.4	4453
368.2	4270
370	4305
371.8	4240
373.6	4213
375.4	4226
377.2	4239
379	4146
380.8	4029
382.6	4135
384.4	4253
386.2	4382
388	4578
389.8	4735
391.6	4953
393.4	5305
395.2	5635
397	6124
398.8	6612
400.6	7273
402.4	8009
404.2	8895
406	9749
407.8	10834
409.6	12125
411.4	13544
413.2	15088
415	16728
416.8	18531
418.6	20538
420.4	22661
422.2	25012
424	27294
425.8	29796
427.6	32383
429.4	35239
431.2	39654
433	41529
434.8	43779
436.6	46694
438.4	48612
440.2	51170
442	53530
443.8	55742
445.6	57911
447.4	59761
449.2	61468
451	63042
452.8	64323
454.6	66204
456.4	66246
458.2	66771
460	67520
461.8	65904
463.6	64961
465.4	63576
467.2	62872
469	62162
470.8	61601
472.6	61328
474.4	61422
476.2	58854
478	58382
479.8	59265
481.6	55052
483.4	55520
485.2	52757
487	50988
488.8	48302
490.6	46195
492.4	43847
494.2	41640
496	39149
497.8	36723
499.6	35090
501.4	32142
503.2	30099
505	28003
506.8	26121
508.6	24492
510.4	26050
512.2	22779
514	22323
515.8	21017
517.6	17798
519.4	18101
521.2	13865
523	12389
524.8	11449
526.6	32588
528.4	10388
530.2	23615
532	9085
533.8	8976
535.6	12711
537.4	9665
539.2	6330
541	5743
542.8	5378
544.6	5204
546.4	5173
548.2	6412
550	5159
551.8	5424
553.6	5381
555.4	5537
557.2	5726
559	6004
560.8	6345
562.6	6584
564.4	7286
566.2	7925
568	9294
569.8	25690
571.6	10395
573.4	14610
575.2	12028
577	11430
578.8	24333
580.6	14295
582.4	19166
584.2	17716
586	33671
587.8	41699
589.6	29473
591.4	24821
593.2	18813
595	21247
596.8	19171
598.6	18051
600.4	18950
602.2	19026
604	19719
605.8	20813
607.6	21304
609.4	22107
611.2	22906
613	24253
614.8	24694
616.6	25398
618.4	26176
620.2	26972
622	27783
623.8	28310
625.6	29612
627.4	29506
629.2	29951
631	30448
632.8	30675
634.6	30785
636.4	31224
638.2	31373
640	31606
641.8	31626
643.6	31551
645.4	31446
647.2	31329
649	31170
650.8	31049
652.6	30808
654.4	30339
656.2	29563
658	29004
659.8	28433
661.6	27962
663.4	27553
665.2	27000
667	26220
668.8	25626
670.6	25368
672.4	24290
674.2	24155
676	27414
677.8	23705
679.6	24534
681.4	24897
683.2	26625
685	20614
686.8	20336
688.6	18989
690.4	17743
692.2	16765
694	16583
695.8	15322
697.6	14137
699.4	13118
701.2	12296
703	11433
704.8	10769
706.6	10212
708.4	9593
710.2	9129
712	8727
713.8	8223
715.6	7725
717.4	7325
719.2	6830
721	6525
722.8	6192
724.6	6043
726.4	5980
728.2	6216
730	6279
731.8	6622
733.6	8652
735.4	31158
737.2	45363
739	8519
740.8	9723
742.6	16234
744.4	19133
746.2	17267
748	27967
749.8	11802
751.6	25039
753.4	17755
755.2	8700
757	22554
758.8	13420
760.6	6157
762.4	6260
764.2	4066
766	3550
767.8	3354
769.6	3332
771.4	3426
773.2	3217
775	3354
776.8	3535
778.6	4029
780.4	6917
782.2	4302
784	4035
785.8	4727
787.6	5713
789.4	5421
791.2	8316
793	22198
794.8	19184
796.6	12820
798.4	9981
800.2	10852
802	13825
803.8	43374
805.6	18303
807.4	72683
809.2	22654
811	26802
812.8	9635
814.6	17647
816.4	8220
818.2	12654
820	5056
821.8	4558
823.6	4073
825.4	3469
827.2	3016
829	3069
830	2841