File: lasermedia/data/051-abs.txt
# Optical absorption spectrum of Program fragment delivered error ``Can't call method "sample_" on an undefined value at abs.template line 1.'':GLASS (Nd:Q98 Glass)
# assuming unity concentration per meter.  This data was part of the NASA
# Laser Spectra Database found on the web until December of 2005 which
# was created by Pat Cross working at NASA Langley Research Center, Internal
# Operations Group, Aerospace Electronics Systems Division, Remote Sensing.
#
# The spectra was collected by MS on 22 January 1988 and was
# annotated on 28 January 1988.  The sample name was "" was a 1.8500
# long piece of :.
# The incident light was unpolarized.
#
# Spectra were recorded from 325 to 830nm
# every 0.2nm at room temperature.
#
# FILE NAME ON PE-3600 = 001 GLAS5.SP ON PC = 001GLAS5.SP NO_POINTS = 2526. pts DATA_INTV = 0.000200 µm MIN_LAMBDA = 0.325000 µm MIN_DATA = 0. MAX_LAMBDA = 0.830000 µm MAX_DATA = 31842.0 SCANSPEED = .015 æm/min SLITWIDTH= 0.00020 µmITA = 0. RESP = 0.5 sec ISMS = 0. DATE=88/01/22 INST = 509. ? = 0. ND:GLASS SAMPLE FROM KIGRE CORP. Q-98 GLASS. THE MATERIAL IS SUPPOSE TO BE 3wt.% ND (CONVERSATION WITH J. MEYERS INDICATE 3wt.% APPROX. 3*10(20)IONS/CM3. ND2O3. converted to AU by Mark Storm. header added by hand. Q-98KIGRE ND:GLASS,SAMEAS1-4,HIGHRES, STORM.
#
##Wavelength (nm)	Absorbance (/meter)
325	6506
326.8	6118
328.6	5838
330.4	5230
332.2	4423
334	3342
335.8	2467
337.6	2142
339.4	1899
341.2	1717
343	1593
344.8	1690
346.6	4288
348.4	8329
350.2	10813
352	7265
353.8	7350
355.6	10751
357.4	9111
359.2	3696
361	1389
362.8	557
364.6	227
366.4	180
368.2	74
370	61
371.8	9
373.6	1
375.4	46
377.2	88
379	1
380.8	71
382.6	61
384.4	50
386.2	43
388	54
389.8	1
391.6	1
393.4	54
395.2	1
397	16
398.8	4
400.6	1
402.4	1
404.2	25
406	1
407.8	1
409.6	35
411.4	29
413.2	39
415	61
416.8	34
418.6	148
420.4	158
422.2	139
424	63
425.8	57
427.6	379
429.4	1319
431.2	802
433	817
434.8	302
436.6	121
438.4	88
440.2	56
442	66
443.8	100
445.6	139
447.4	109
449.2	195
451	334
452.8	492
454.6	672
456.4	813
458.2	1030
460	1161
461.8	1208
463.6	1127
465.4	1073
467.2	1128
469	1273
470.8	1533
472.6	1360
474.4	1500
476.2	1869
478	1603
479.8	938
481.6	604
483.4	370
485.2	224
487	136
488.8	150
490.6	121
492.4	68
494.2	230
496	436
497.8	742
499.6	1080
501.4	1407
503.2	1669
505	1961
506.8	2498
508.6	3585
510.4	5185
512.2	5554
514	4447
515.8	4039
517.6	3521
519.4	3476
521.2	5847
523	8975
524.8	9244
526.6	7541
528.4	5959
530.2	4232
532	3521
533.8	2473
535.6	1461
537.4	936
539.2	679
541	521
542.8	445
544.6	458
546.4	466
548.2	428
550	374
551.8	314
553.6	373
555.4	321
557.2	275
559	321
560.8	365
562.6	453
564.4	732
566.2	1316
568	3328
569.8	11758
571.6	16584
573.4	18097
575.2	21038
577	23477
578.8	26427
580.6	28402
582.4	31691
584.2	29130
586	21238
587.8	16777
589.6	12928
591.4	10292
593.2	8193
595	6123
596.8	3788
598.6	2290
600.4	1526
602.2	913
604	452
605.8	252
607.6	168
609.4	191
611.2	136
613	158
614.8	92
616.6	158
618.4	164
620.2	224
622	377
623.8	377
625.6	481
627.4	509
629.2	424
631	453
632.8	412
634.6	309
636.4	273
638.2	235
640	273
641.8	177
643.6	180
645.4	194
647.2	132
649	142
650.8	171
652.6	194
654.4	128
656.2	191
658	183
659.8	147
661.6	233
663.4	271
665.2	207
667	255
668.8	335
670.6	516
672.4	717
674.2	785
676	950
677.8	1076
679.6	1288
681.4	1567
683.2	1693
685	1668
686.8	1306
688.6	1021
690.4	799
692.2	528
694	422
695.8	320
697.6	292
699.4	238
701.2	251
703	190
704.8	253
706.6	221
708.4	216
710.2	237
712	262
713.8	203
715.6	244
717.4	297
719.2	307
721	378
722.8	520
724.6	510
726.4	806
728.2	1114
730	1623
731.8	3364
733.6	8608
735.4	14548
737.2	13550
739	15024
740.8	15953
742.6	16361
744.4	20447
746.2	21433
748	18789
749.8	16758
751.6	12646
753.4	8922
755.2	6636
757	5150
758.8	3961
760.6	2923
762.4	2217
764.2	1611
766	1192
767.8	1013
769.6	822
771.4	737
773.2	611
775	492
776.8	646
778.6	841
780.4	1183
782.2	1738
784	2292
785.8	3003
787.6	3895
789.4	5208
791.2	7623
793	10975
794.8	15244
796.6	18934
798.4	21802
800.2	28236
802	30424
803.8	23573
805.6	17794
807.4	14041
809.2	10729
811	8191
812.8	6762
814.6	5838
816.4	4874
818.2	4198
820	3334
821.8	2699
823.6	1953
825.4	1342
827.2	989
829	812
830	666