File: lasermedia/data/053-abs.txt
# Optical absorption spectrum of Program fragment delivered error ``Can't call method "sample_" on an undefined value at abs.template line 1.'':YLF (Nd:LiYF4)
# assuming unity concentration per meter.  This data was part of the NASA
# Laser Spectra Database found on the web until December of 2005 which
# was created by Pat Cross working at NASA Langley Research Center, Internal
# Operations Group, Aerospace Electronics Systems Division, Remote Sensing.
#
# The spectra was collected by MS on  5 January 1988 and was
# annotated on 28 January 1988.  The sample name was "" was a 4.1000
# long piece of :.
# The incident light had unknown polarization.
#
# Spectra were recorded from 325 to 830nm
# every 0.2nm at room temperature.
#
# FILE NAME ON PE-3600 = 001 NYLF5.SP ON PC = 001NYLF5.SP NO_POINTS = 2526. pts DATA_INTV = 0.000200 µm MIN_LAMBDA = 0.325000 µm MIN_DATA = 0. MAX_LAMBDA = 0.830000 µm MAX_DATA = 34350.0 SCANSPEED = .015 µm/min SLITWIDTH= 0.00010 µmITA = 0. RESP = 1.0 sec ISMS = 0. DATE=88/01/05 INST = 509. ? = 0. POLARIZED ND:YLF SPECTRA. CRYSTALS FROM AIRTRON. PLASTIC POLARIZERS USED. ONLY 95% POLARIZED AT 810NM. MORE POL. AT SHORTER WAVELENGTHS TO 400. LESS POLARIZED LONGER THAN 810NM AND SHORTER THAN 400NM. STORM converted by Mark Storm. header added by hand. ND:YLF,AIRTRON,.162 IN THICK,A-AXIS,PERP. TO AWIND.
#
##Wavelength (nm)	Absorbance (/meter)
325	1609
326.8	1962
328.6	1831
330.4	1379
332.2	1178
334	377
335.8	1
337.6	145
339.4	585
341.2	561
343	1534
344.8	895
346.6	4174
348.4	2715
350.2	6452
352	2862
353.8	2936
355.6	9305
357.4	3118
359.2	761
361	804
362.8	343
364.6	152
366.4	142
368.2	74
370	248
371.8	271
373.6	66
375.4	650
377.2	1
379	863
380.8	349
382.6	560
384.4	150
386.2	142
388	147
389.8	590
391.6	259
393.4	67
395.2	257
397	61
398.8	1
400.6	1
402.4	153
404.2	1
406	93
407.8	12
409.6	1
411.4	1
413.2	1
415	28
416.8	105
418.6	183
420.4	1
422.2	1
424	81
425.8	83
427.6	3093
429.4	208
431.2	6
433	1
434.8	1
436.6	1
438.4	1
440.2	1
442	1
443.8	1
445.6	1
447.4	131
449.2	10
451	256
452.8	178
454.6	965
456.4	800
458.2	786
460	988
461.8	280
463.6	540
465.4	12
467.2	330
469	949
470.8	353
472.6	357
474.4	1896
476.2	578
478	2523
479.8	350
481.6	29
483.4	1
485.2	1
487	1
488.8	1
490.6	1
492.4	1
494.2	16
496	241
497.8	700
499.6	1121
501.4	1303
503.2	1271
505	1236
506.8	3042
508.6	1750
510.4	4338
512.2	2670
514	2504
515.8	2069
517.6	1748
519.4	2467
521.2	12827
523	2189
524.8	8411
526.6	1961
528.4	3257
530.2	1158
532	650
533.8	205
535.6	426
537.4	1
539.2	698
541	1
542.8	1
544.6	18
546.4	1
548.2	1
550	1
551.8	1
553.6	1
555.4	1
557.2	1
559	83
560.8	732
562.6	580
564.4	1351
566.2	5348
568	2589
569.8	3019
571.6	9283
573.4	9185
575.2	6933
577	8103
578.8	20161
580.6	8708
582.4	21231
584.2	8824
586	6789
587.8	8866
589.6	6731
591.4	1835
593.2	908
595	868
596.8	1512
598.6	576
600.4	504
602.2	65
604	1
605.8	1
607.6	1
609.4	1
611.2	1
613	1
614.8	1
616.6	1
618.4	1
620.2	1
622	7
623.8	1
625.6	12
627.4	136
629.2	1
631	1
632.8	9
634.6	1
636.4	1
638.2	1
640	1
641.8	1
643.6	223
645.4	1
647.2	206
649	1
650.8	1
652.6	54
654.4	1
656.2	1
658	29
659.8	1
661.6	179
663.4	1
665.2	1
667	1
668.8	6
670.6	296
672.4	1466
674.2	129
676	486
677.8	1503
679.6	874
681.4	771
683.2	1017
685	822
686.8	332
688.6	1
690.4	1
692.2	1
694	1
695.8	1
697.6	1
699.4	90
701.2	1
703	16
704.8	102
706.6	7
708.4	1
710.2	113
712	1
713.8	1
715.6	1
717.4	314
719.2	1
721	589
722.8	644
724.6	821
726.4	851
728.2	1351
730	2658
731.8	12942
733.6	19750
735.4	4557
737.2	4325
739	8293
740.8	8314
742.6	11796
744.4	9379
746.2	15397
748	21857
749.8	13642
751.6	6713
753.4	5187
755.2	2303
757	1685
758.8	1368
760.6	2013
762.4	2575
764.2	59
766	119
767.8	300
769.6	749
771.4	656
773.2	355
775	74
776.8	540
778.6	849
780.4	1226
782.2	1383
784	3377
785.8	6686
787.6	2701
789.4	3999
791.2	7781
793	6334
794.8	5367
796.6	27897
798.4	9480
800.2	7222
802	10486
803.8	10083
805.6	21881
807.4	12238
809.2	13815
811	4415
812.8	3426
814.6	1498
816.4	321
818.2	351
820	1
821.8	1193
823.6	263
825.4	1278
827.2	525
829	505
830	582