File: lasermedia/data/054-abs.txt
# Optical absorption spectrum of Program fragment delivered error ``Can't call method "sample_" on an undefined value at abs.template line 1.'':YLF (Nd:LiYF4)
# assuming unity concentration per meter.  This data was part of the NASA
# Laser Spectra Database found on the web until December of 2005 which
# was created by Pat Cross working at NASA Langley Research Center, Internal
# Operations Group, Aerospace Electronics Systems Division, Remote Sensing.
#
# The spectra was collected by MS on  5 January 1988 and was
# annotated on 28 January 1988.  The sample name was "" was a 4.1000
# long piece of :.
# The incident light had unknown polarization.
#
# Spectra were recorded from 325 to 830nm
# every 0.2nm at room temperature.
#
# FILE NAME ON PE-3600 = 001 NYLF4.SP ON PC = 001NYLF4.SP NO_POINTS = 2526. pts DATA_INTV = 0.000200 µm MIN_LAMBDA = 0.325000 µm MIN_DATA = 0. MAX_LAMBDA = 0.830000 µm MAX_DATA = 107808.0 SCANSPEED = .015 µm/min SLITWIDTH= 0.00010 µmITA = 0. RESP = 1.0 sec ISMS = 0. DATE=88/01/05 INST = 509. ? = 0. POLARIZED SPECTRA. PLASTIC POLARIZERS USED.EFFECTS OF PLASTIC NORMALIZED OUT.ONLY 95%POLARIZED AT 810NM. POL. GETS WORSE (90%) AT 820 AND WORSE BELOW 390NM. converted by Mark Storm. header added by hand. ND:YLF,AIRTRON,.162IN THICK,C-AXIS,PARAL. TO AWIND.
#
##Wavelength (nm)	Absorbance (/meter)
325	2626
326.8	3564
328.6	4122
330.4	5059
332.2	3351
334	1172
335.8	1159
337.6	1596
339.4	1554
341.2	1145
343	2271
344.8	2076
346.6	2213
348.4	9368
350.2	15935
352	14702
353.8	6847
355.6	4954
357.4	23050
359.2	2366
361	1277
362.8	1240
364.6	1544
366.4	367
368.2	1121
370	1919
371.8	765
373.6	1573
375.4	994
377.2	1
379	694
380.8	831
382.6	938
384.4	1201
386.2	605
388	954
389.8	1471
391.6	1124
393.4	1606
395.2	1244
397	1013
398.8	778
400.6	1075
402.4	1174
404.2	866
406	1168
407.8	1318
409.6	974
411.4	1150
413.2	1190
415	1392
416.8	1375
418.6	1218
420.4	1252
422.2	1173
424	1356
425.8	1404
427.6	1108
429.4	1515
431.2	2481
433	1470
434.8	1126
436.6	929
438.4	1148
440.2	1043
442	1280
443.8	1136
445.6	984
447.4	1191
449.2	1296
451	1587
452.8	1729
454.6	2876
456.4	2035
458.2	2064
460	2532
461.8	2228
463.6	3045
465.4	2271
467.2	2979
469	3487
470.8	2155
472.6	1738
474.4	2808
476.2	2002
478	7192
479.8	2625
481.6	1442
483.4	1035
485.2	864
487	1431
488.8	951
490.6	1000
492.4	1057
494.2	1224
496	1303
497.8	1580
499.6	2019
501.4	2354
503.2	2706
505	3202
506.8	4267
508.6	5542
510.4	12383
512.2	10063
514	6209
515.8	2817
517.6	2263
519.4	2922
521.2	9232
523	3355
524.8	4120
526.6	4025
528.4	4940
530.2	8260
532	3883
533.8	1794
535.6	2291
537.4	1124
539.2	1047
541	872
542.8	940
544.6	870
546.4	603
548.2	885
550	936
551.8	1153
553.6	719
555.4	593
557.2	873
559	885
560.8	1089
562.6	1417
564.4	1854
566.2	5278
568	3414
569.8	4541
571.6	7286
573.4	4032
575.2	3866
577	6120
578.8	14928
580.6	16613
582.4	12052
584.2	19658
586	13433
587.8	10470
589.6	3910
591.4	2333
593.2	1483
595	1528
596.8	865
598.6	763
600.4	1157
602.2	1179
604	969
605.8	884
607.6	718
609.4	731
611.2	832
613	958
614.8	873
616.6	937
618.4	970
620.2	955
622	890
623.8	938
625.6	854
627.4	1402
629.2	958
631	996
632.8	859
634.6	714
636.4	829
638.2	795
640	795
641.8	622
643.6	717
645.4	859
647.2	838
649	827
650.8	559
652.6	646
654.4	771
656.2	407
658	931
659.8	762
661.6	914
663.4	811
665.2	1030
667	825
668.8	801
670.6	1546
672.4	1549
674.2	1376
676	2253
677.8	6679
679.6	2069
681.4	1669
683.2	3111
685	1714
686.8	1520
688.6	1184
690.4	805
692.2	794
694	801
695.8	1040
697.6	578
699.4	220
701.2	528
703	863
704.8	555
706.6	827
708.4	805
710.2	828
712	788
713.8	561
715.6	1017
717.4	1101
719.2	1139
721	1386
722.8	1923
724.6	1990
726.4	2458
728.2	3556
730	6492
731.8	56487
733.6	49550
735.4	7421
737.2	5676
739	12934
740.8	16844
742.6	23956
744.4	23541
746.2	72715
748	21497
749.8	8381
751.6	5544
753.4	3619
755.2	2136
757	1912
758.8	2147
760.6	2180
762.4	1305
764.2	888
766	1253
767.8	2158
769.6	2975
771.4	1440
773.2	994
775	1381
776.8	1953
778.6	2836
780.4	4097
782.2	3132
784	3668
785.8	5441
787.6	9947
789.4	32549
791.2	75125
793	51288
794.8	21349
796.6	71908
798.4	34722
800.2	16046
802	16561
803.8	17911
805.6	20124
807.4	8755
809.2	9164
811	3290
812.8	2770
814.6	2002
816.4	1247
818.2	976
820	1039
821.8	1414
823.6	1605
825.4	1297
827.2	1174
829	789
830	1541