File: lasermedia/data/056-abs.txt
# Optical absorption spectrum of Program fragment delivered error ``Can't call method "sample_" on an undefined value at abs.template line 1.'':YVO4 (Nd:YVO4)
# assuming unity concentration per meter.  This data was part of the NASA
# Laser Spectra Database found on the web until December of 2005 which
# was created by Pat Cross working at NASA Langley Research Center, Internal
# Operations Group, Aerospace Electronics Systems Division, Remote Sensing.
#
# The spectra was collected by MS on 11 March 1988 and was
# annotated on 18 March 1988.  The sample name was "" was a 1.6000
# long piece of :.
# The incident light had unknown polarization.
#
# Spectra were recorded from 325 to 830nm
# every 0.2nm at room temperature.
#
# FILE NAME ON PE-3600 = 001 NYVO3.SP ON PC = 001NYVO3.SP NO_POINTS = 2526. pts DATA_INTV = 0.000200 µm MIN_LAMBDA = 0.325000 µm MIN_DATA = 0. MAX_LAMBDA = 0.830000 µm MAX_DATA = .24619E6 SCANSPEED = .015 µm/min SLITWIDTH= 0.00020 µmITA = 0. RESP = 0.5 sec ISMS = 0. DATE=88/03/11 INST = 509. ? = 0. THIS IS DATA TAKEN FROM A ND DOPED ORTHO-VANIDATE CRYSTAL PROVIDED BY MILT BIRNBAUM. THE XTAL IS 1.60MM THICK AND HAS A BLUISH-VIOLETISH COLOR THAT IS NOT UNIFORM. IN ADDITION THE SURFACE POLISH WAS VERY POOR. THE SHORT WAVELENGTH DATA I BELIEVE SHOW A SLANTED BASELINE DUE TO SCATTERING LOSSES INTERNAL AND EXTERNAL.PLASTIC POLARIZERS WERE USED INSIDE P.E. longside is identified as 'C' axis.(ã polar or extraordinary ray) converted to AU by Mark Storm. header added by hand ND:YVO4,1%ND,1.60MMTHICK,LONGSIDE,BIRNBAUM,SAME AS1.
#
##Wavelength (nm)	Absorbance (/meter)
325	228488
326.8	234119
328.6	231007
330.4	218549
332.2	232594
334	226771
335.8	227048
337.6	234708
339.4	238189
341.2	228986
343	231954
344.8	236519
346.6	233512
348.4	224797
350.2	194506
352	136504
353.8	93620
355.6	74967
357.4	74898
359.2	62246
361	40253
362.8	36450
364.6	25574
366.4	9143
368.2	8305
370	2736
371.8	2991
373.6	2943
375.4	3058
377.2	1844
379	1396
380.8	2075
382.6	1869
384.4	2736
386.2	2278
388	2035
389.8	1687
391.6	2627
393.4	1821
395.2	1774
397	2227
398.8	1444
400.6	1605
402.4	1761
404.2	1935
406	1512
407.8	855
409.6	1565
411.4	1950
413.2	1397
415	1632
416.8	1383
418.6	1219
420.4	1084
422.2	1864
424	2557
425.8	1839
427.6	1398
429.4	1764
431.2	1790
433	1712
434.8	1303
436.6	5039
438.4	2622
440.2	1596
442	1859
443.8	971
445.6	682
447.4	1403
449.2	938
451	1029
452.8	1124
454.6	948
456.4	930
458.2	1191
460	1771
461.8	2873
463.6	3265
465.4	3479
467.2	5454
469	4817
470.8	6827
472.6	5016
474.4	4599
476.2	30553
478	2729
479.8	2554
481.6	8585
483.4	4003
485.2	4978
487	1511
488.8	1418
490.6	913
492.4	1032
494.2	805
496	1006
497.8	921
499.6	1131
501.4	1359
503.2	1839
505	2850
506.8	4743
508.6	8150
510.4	14055
512.2	18535
514	10997
515.8	8670
517.6	15932
519.4	16954
521.2	18615
523	16074
524.8	10028
526.6	5815
528.4	5458
530.2	22438
532	4744
533.8	9659
535.6	4748
537.4	3719
539.2	5385
541	29796
542.8	5938
544.6	3250
546.4	1106
548.2	911
550	849
551.8	1064
553.6	1202
555.4	1230
557.2	1405
559	1608
560.8	1719
562.6	1774
564.4	2051
566.2	1991
568	2259
569.8	2449
571.6	3047
573.4	3305
575.2	4318
577	6741
578.8	8735
580.6	14727
582.4	47594
584.2	42344
586	45360
587.8	42970
589.6	49361
591.4	47692
593.2	155231
595	153656
596.8	120071
598.6	187209
600.4	43282
602.2	37967
604	17332
605.8	13422
607.6	4802
609.4	2356
611.2	1360
613	790
614.8	408
616.6	119
618.4	133
620.2	201
622	1
623.8	494
625.6	1272
627.4	951
629.2	829
631	304
632.8	475
634.6	758
636.4	381
638.2	153
640	363
641.8	386
643.6	337
645.4	198
647.2	166
649	636
650.8	734
652.6	344
654.4	147
656.2	540
658	141
659.8	194
661.6	1
663.4	1
665.2	432
667	284
668.8	25
670.6	384
672.4	236
674.2	235
676	519
677.8	643
679.6	780
681.4	1230
683.2	4711
685	9529
686.8	3097
688.6	5406
690.4	4406
692.2	3039
694	3186
695.8	2170
697.6	1424
699.4	629
701.2	596
703	237
704.8	1665
706.6	902
708.4	234
710.2	534
712	225
713.8	431
715.6	598
717.4	479
719.2	570
721	305
722.8	1
724.6	1050
726.4	118
728.2	1238
730	1050
731.8	1771
733.6	1909
735.4	2639
737.2	3085
739	4685
740.8	8064
742.6	83461
744.4	21633
746.2	18003
748	43212
749.8	63783
751.6	51163
753.4	37668
755.2	27751
757	56205
758.8	47497
760.6	28907
762.4	28437
764.2	12341
766	6476
767.8	4281
769.6	4461
771.4	3297
773.2	5466
775	12301
776.8	4647
778.6	2300
780.4	1835
782.2	1668
784	1577
785.8	2251
787.6	2100
789.4	2411
791.2	2894
793	4097
794.8	5531
796.6	8638
798.4	16597
800.2	21411
802	35811
803.8	50783
805.6	102090
807.4	124405
809.2	191606
811	64289
812.8	85179
814.6	31696
816.4	17240
818.2	15622
820	15412
821.8	12330
823.6	5425
825.4	3327
827.2	2317
829	1793
830	1777